#ZVView-data-copy:  31-Dec-2024 18:42:10
#=======================================
#
#name:   ENDF/B-VIII.0: CA-48(N,EL)CA-48-L0
#X.axis: Incident Energy
#Y.axis: Cross Section
#wdata:  2
#ldata:  1030
#data...
#            X            Y
#          MeV        barns
         1e-11      30.7635 
   1.10304e-11      29.3102 
   1.21669e-11      27.9273 
   1.34206e-11      26.6116 
   1.48034e-11      25.3599 
   1.63287e-11      24.1692 
   1.80111e-11      23.0365 
   1.99488e-11      21.9153 
   2.20043e-11       20.893 
   2.42715e-11      19.9209 
   2.67724e-11      18.9967 
   2.95309e-11      18.1181 
   3.25737e-11      17.2831 
     3.593e-11      16.4896 
   3.96321e-11      15.7357 
   4.40218e-11      14.9701 
   4.89003e-11      14.2453 
   5.43166e-11      13.5601 
   6.03359e-11      12.9119 
   6.70189e-11      12.2996 
   7.44458e-11      11.7208 
   8.26916e-11      11.1745 
   9.18554e-11      10.6586 
    1.0203e-10      10.1721 
   1.13337e-10      9.71325 
    1.2589e-10      9.28119 
   1.39841e-10      8.87419 
    1.5533e-10      8.49153 
   1.72544e-10      8.13169 
   1.91654e-10      7.79397 
   2.12894e-10      7.47703 
   2.38143e-10      7.16105 
   2.66386e-10      6.86669 
   2.97979e-10      6.59288 
   3.33319e-10      6.33861 
    3.7285e-10       6.1029 
   4.19991e-10      5.87179 
   4.73116e-10      5.65939 
   5.32933e-10      5.46482 
   6.04549e-10      5.27696 
   6.85788e-10      5.10664 
   7.83433e-10      4.94459 
   8.94935e-10       4.7995 
    1.02952e-9      4.66357 
     1.1927e-9      4.53777 
    1.39142e-9      4.42283 
    1.63462e-9      4.31908 
    1.94751e-9      4.22297 
    2.35292e-9      4.13602 
    2.88297e-9        4.059 
    3.60736e-9      3.99026 
    4.64202e-9      3.92925 
     6.1862e-9      3.87615 
    8.65859e-9      3.83057 
     1.2908e-8      3.79302 
    2.12247e-8      3.76305 
    2.52052e-8       3.7557 
       2.53e-8      3.75555 
    5.27906e-8      3.73522 
    1.71253e-7      3.72225 
    4.38673e-6      3.71563 
    0.00072871      3.54457 
    0.00153431      3.38362 
    0.00241369      3.23512 
    0.00340594      3.09411 
    0.00450462      2.96334 
     0.0057484      2.83989 
    0.00711399      2.72732 
     0.0086874      2.61999 
      0.010503      2.51856 
     0.0125619      2.42495 
     0.0148202      2.34151 
     0.0175643      2.25949 
     0.0206315      2.18627 
     0.0243959      2.11499 
     0.0287199      2.05075 
     0.0340023      1.98962 
     0.0404193      1.93252 
     0.0484896      1.87798 
     0.0586824      1.82621 
     0.0716681      1.77654 
     0.0908644      1.72041 
       0.12009      1.64305 
      0.130712      1.60531 
      0.137499      1.57079 
      0.141925      1.53874 
      0.145171      1.50608 
      0.147827      1.46945 
      0.149892      1.43054 
      0.151367      1.39388 
      0.152548      1.35655 
      0.153581      1.31537 
      0.154466      1.27141 
      0.155203      1.22601 
      0.155794      1.18196 
       0.15631      1.13591 
      0.156753      1.08934 
      0.157121      1.04426 
      0.157476       0.9941 
        0.1578     0.940752 
      0.158036     0.896714 
      0.158272      0.84734 
      0.158449     0.806424 
      0.158626     0.761337 
      0.158803     0.711694 
       0.15898     0.656873 
      0.159098     0.617113 
      0.159216     0.574533 
      0.159334      0.52892 
      0.159452      0.48008 
      0.159571     0.427864 
      0.159659     0.386416 
      0.159748     0.343143 
      0.159851     0.290397 
      0.159954     0.235759 
      0.160131     0.140472 
      0.160184     0.112678 
      0.160226    0.0917965 
      0.160257    0.0767712 
      0.160282    0.0651198 
      0.160304    0.0553003 
      0.160322    0.0475039 
      0.160338     0.041264 
      0.160352    0.0356132 
      0.160364    0.0313162 
      0.160375    0.0274835 
      0.160384    0.0245649 
      0.160393    0.0217875 
      0.160402    0.0191589 
       0.16041    0.0168869 
      0.160417     0.014941 
      0.160423    0.0134699 
      0.160429    0.0120781 
      0.160435    0.0108479 
       0.16044   0.00976726 
      0.160445    0.0087543 
      0.160449   0.00804025 
      0.160453   0.00736666 
      0.160457   0.00664693 
      0.160461   0.00614329 
      0.160464   0.00567142 
      0.160467   0.00523179 
      0.160471    0.0048253 
      0.160474   0.00445213 
      0.160477   0.00411345 
      0.160479   0.00390713 
      0.160482   0.00371648 
      0.160484   0.00354192 
      0.160486   0.00338355 
      0.160488   0.00324168 
      0.160491   0.00308768 
      0.160494   0.00296026 
      0.160496   0.00289026 
      0.160497   0.00283232 
      0.160499   0.00278665 
      0.160501   0.00275334 
      0.160504   0.00272824 
      0.160505   0.00272432 
      0.160507   0.00273493 
      0.160509   0.00275881 
      0.160511   0.00279651 
      0.160513   0.00284815 
      0.160515   0.00291396 
      0.160517   0.00299403 
      0.160519   0.00308858 
      0.160521   0.00319771 
      0.160523   0.00331855 
      0.160524   0.00345358 
      0.160526   0.00360305 
      0.160529   0.00385462 
      0.160532   0.00413945 
      0.160535   0.00445825 
      0.160537   0.00481147 
       0.16054    0.0051998 
      0.160543   0.00562351 
      0.160546   0.00608371 
      0.160548   0.00658045 
      0.160551   0.00711471 
      0.160554   0.00768699 
      0.160557    0.0082981 
      0.160559   0.00894836 
      0.160563   0.00987766 
      0.160566    0.0106734 
      0.160569    0.0116251 
      0.160573    0.0126382 
      0.160576    0.0137135 
       0.16058    0.0152463 
      0.160584    0.0165422 
      0.160588     0.018061 
      0.160592    0.0196732 
      0.160596    0.0213805 
      0.160601    0.0238092 
      0.160605    0.0258431 
      0.160609    0.0281912 
      0.160614    0.0306781 
       0.16062    0.0342151 
      0.160625    0.0380126 
      0.160631    0.0415568 
      0.160636    0.0455915 
      0.160642    0.0498782 
      0.160647    0.0544286 
      0.160653    0.0592488 
      0.160658    0.0643501 
      0.160666    0.0716052 
      0.160673    0.0793989 
       0.16068    0.0877565 
      0.160688    0.0971665 
      0.160695     0.105773 
      0.160701     0.114902 
      0.160708     0.124573 
      0.160717     0.138351 
      0.160724     0.150007 
      0.160732     0.163699 
      0.160739      0.17828 
      0.160747     0.193792 
      0.160755     0.210283 
      0.160763     0.227794 
      0.160771     0.249135 
       0.16078     0.271955 
      0.160789     0.296343 
      0.160798     0.322385 
      0.160807     0.350178 
      0.160816     0.379819 
      0.160825     0.411415 
      0.160833     0.445071 
      0.160842     0.480921 
      0.160851     0.519086 
      0.160861     0.563225 
      0.160872     0.617983 
      0.160883     0.677072 
      0.160894     0.740764 
      0.160905     0.809419 
      0.160916     0.883402 
      0.160927      0.96313 
      0.160938      1.04899 
      0.160949      1.14142 
       0.16096       1.2409 
      0.160971      1.34792 
      0.160982      1.46302 
      0.160994      1.58675 
      0.161005      1.71971 
      0.161016      1.86254 
      0.161027      2.01587 
      0.161038      2.18043 
      0.161049      2.35693 
       0.16106      2.54612 
      0.161071      2.74877 
      0.161082      2.96568 
      0.161093      3.19762 
      0.161106      3.49702 
       0.16112      3.82061 
      0.161133      4.16975 
      0.161146      4.54561 
       0.16116      4.94932 
      0.161173      5.38169 
      0.161186      5.84328 
      0.161199      6.33421 
      0.161217       7.0339 
      0.161235      7.78264 
      0.161251      8.50815 
      0.161275      9.65479 
      0.161337       12.651 
      0.161359      13.6737 
      0.161378      14.4756 
      0.161396       15.188 
      0.161413      15.7228 
       0.16143      16.1669 
      0.161446      16.5088 
      0.161462      16.7546 
      0.161478      16.9052 
      0.161497      16.9653 
      0.161518      16.9033 
      0.161536      16.7574 
      0.161553      16.5377 
      0.161577      16.1534 
      0.161612      15.4465 
       0.16166      14.3764 
       0.16173      12.7521 
      0.161778       11.754 
      0.161813      11.0689 
      0.161849       10.441 
      0.161884      9.86863 
      0.161919      9.34848 
      0.161955       8.8764 
       0.16199      8.44796 
      0.162037      7.93713 
      0.162085      7.48663 
      0.162132        7.088 
      0.162179      6.73394 
      0.162226      6.41822 
      0.162273      6.13553 
      0.162321      5.88143 
      0.162391      5.54577 
      0.162462      5.25567 
      0.162533        5.003 
      0.162598      4.79891 
      0.162694       4.5371 
      0.162787      4.31915 
       0.16287      4.14967 
      0.162945      4.01255 
      0.163052      3.84111 
       0.16317      3.67786 
      0.163288      3.53662 
      0.163407      3.41332 
      0.163584      3.25533 
      0.163761      3.12288 
      0.163938      3.01035 
      0.164115      2.91362 
      0.164351      2.80403 
      0.164616      2.70155 
      0.164926       2.6024 
      0.165291      2.50738 
      0.165679      2.42515 
      0.166121      2.34871 
      0.166638      2.27677 
      0.167228      2.21074 
      0.167965      2.14555 
      0.168777      2.08937 
       0.16981      2.03412 
      0.171137       1.9804 
       0.17276       1.9321 
      0.174678      1.89027 
      0.177334      1.84856 
      0.180875      1.81021 
      0.185596      1.77569 
        0.1917      1.74557 
      0.201088      1.71503 
      0.214839      1.68619 
      0.236092      1.65701 
       0.26422      1.63192 
      0.276097       1.6276 
      0.283598        1.633 
      0.287786      1.64551 
      0.290598      1.66453 
      0.292474      1.68774 
      0.293849      1.71494 
      0.294974      1.74843 
      0.295849      1.78552 
      0.296599      1.82939 
      0.297255       1.8813 
      0.297724      1.92943 
      0.298149      1.98429 
      0.298574      2.05243 
      0.298899      2.11709 
      0.299199      2.18912 
        0.2995      2.27623 
        0.2997      2.34473 
        0.2999      2.42341 
        0.3001      2.51428 
        0.3003      2.61981 
        0.3005      2.74308 
       0.30065      2.84981 
        0.3008         2.97 
       0.30095      3.10747 
        0.3011      3.26334 
       0.30125      3.44294 
       0.30135      3.57683 
       0.30145      3.72387 
       0.30155      3.88553 
       0.30165      4.06346 
       0.30175       4.2594 
       0.30185      4.47527 
       0.30195      4.71304 
       0.30205      4.97475 
       0.30215      5.26236 
       0.30225      5.57763 
       0.30235      5.92189 
       0.30245      6.29578 
       0.30255       6.6988 
       0.30265      7.12884 
        0.3028      7.81857 
      0.303069      9.07214 
      0.303162      9.47684 
      0.303237      9.77508 
      0.303312      10.0327 
      0.303387       10.244 
      0.303464      10.4038 
      0.303541      10.5024 
       0.30362       10.535 
      0.303697      10.4952 
      0.303775      10.3901 
       0.30385      10.2293 
      0.303925      10.0178 
         0.304      9.75967 
      0.304075      9.47281 
      0.304188       8.9956 
       0.30455      7.36842 
        0.3047      6.74497 
        0.3048      6.36182 
        0.3049      6.00616 
         0.305      5.67816 
        0.3051      5.37711 
        0.3052      5.10166 
        0.3053      4.85018 
        0.3054      4.62085 
        0.3055      4.41183 
        0.3056      4.22131 
        0.3057      4.04757 
        0.3058      3.88902 
       0.30595      3.67708 
        0.3061      3.49034 
       0.30625      3.32731 
        0.3064      3.18276 
       0.30655      3.05566 
        0.3067      2.94222 
        0.3069      2.81036 
        0.3071      2.69668 
        0.3073      2.59811 
        0.3075      2.51216 
      0.307801       2.4026 
      0.308101      2.31169 
      0.308401      2.23549 
      0.308751      2.16129 
      0.309151      2.09153 
      0.309632      2.02378 
      0.310101      1.97067 
      0.310726      1.91453 
      0.311351      1.87017 
      0.312226      1.82276 
      0.313226      1.78251 
      0.314476      1.74596 
      0.316101      1.71271 
      0.318321      1.68258 
      0.321258      1.65716 
       0.32579      1.63373 
      0.332979      1.61291 
      0.346064      1.59246 
      0.363728       1.5781 
      0.367892       1.5772 
       0.37549      1.58202 
      0.380133      1.59458 
      0.383214      1.61268 
      0.385545      1.63679 
      0.387211      1.66373 
      0.388543      1.69472 
      0.389709      1.73244 
      0.390708      1.77619 
      0.391541      1.82402 
      0.392207      1.87289 
      0.392852      1.93231 
      0.393373      1.99125 
      0.393806      2.05026 
      0.394205      2.11514 
      0.394588      2.18749 
      0.394938      2.26524 
      0.395338      2.37115 
      0.395604      2.45392 
      0.395871      2.54848 
      0.396137      2.65703 
      0.396404      2.78228 
       0.39667      2.92759 
       0.39687      3.05265 
       0.39707      3.19257 
       0.39727      3.35182 
      0.397469      3.53117 
      0.397669      3.73682 
      0.397803      3.88937 
      0.397936      4.05634 
      0.398069      4.23935 
      0.398202      4.44024 
      0.398335      4.66104 
      0.398469      4.90402 
      0.398602      5.17165 
      0.398669      5.31372 
      0.398802      5.62328 
      0.398935      5.96461 
      0.399068      6.34082 
      0.399202      6.75502 
      0.399335      7.21017 
      0.399468      7.70876 
      0.399601      8.25251 
      0.399734      8.84175 
      0.399868      9.47486 
      0.400001      10.1479 
      0.400501      12.8166 
      0.400634      13.4735 
       0.40075      13.9954 
       0.40085      14.3725 
       0.40095      14.6769 
       0.40105      14.8972 
      0.401163      15.0356 
      0.401227      15.0595 
       0.40133      15.0106 
      0.401433      14.8632 
      0.401533      14.6298 
      0.401633      14.3195 
      0.401733      13.9371 
      0.401833      13.5111 
      0.401983      12.7978 
      0.402466      10.3494 
      0.402666      9.40603 
      0.402799      8.82531 
      0.402932      8.28549 
      0.403065        7.787 
      0.403198      7.32887 
      0.403332      6.90921 
      0.403465      6.52561 
      0.403598       6.1754 
      0.403731      5.85584 
      0.403865      5.56424 
      0.403998      5.29803 
      0.404131       5.0548 
      0.404264      4.83235 
      0.404398      4.62865 
      0.404531      4.44187 
      0.404731      4.19065 
      0.404931      3.96728 
       0.40513      3.77066 
       0.40533      3.59463 
       0.40553      3.43849 
       0.40573      3.29775 
      0.405996      3.13241 
      0.406263      2.98808 
      0.406529      2.86133 
      0.406796      2.74939 
      0.407062      2.64998 
      0.407462      2.52035 
      0.407895      2.40126 
      0.408328      2.29963 
      0.408811      2.20222 
       0.40934      2.11067 
      0.409943      2.01998 
      0.410776      1.91154 
      0.412823       1.6693 
      0.413486      1.58998 
      0.413646       1.5756 
       0.41382      1.56807 
      0.413935      1.57213 
      0.414012      1.58185 
      0.414091      1.60069 
       0.41415      1.62319 
      0.414208       1.6551 
      0.414246      1.68338 
      0.414285      1.71908 
      0.414323       1.7634 
      0.414361      1.81902 
      0.414389      1.86994 
      0.414418       1.9305 
      0.414446      2.00272 
      0.414475      2.08908 
      0.414503      2.19271 
      0.414522      2.27327 
      0.414542      2.36464 
      0.414561      2.46844 
       0.41458      2.58661 
      0.414597      2.70713 
      0.414612      2.82711 
      0.414627      2.96081 
      0.414642      3.10999 
      0.414658      3.27664 
      0.414673      3.46303 
      0.414688      3.67167 
      0.414703      3.90531 
      0.414716      4.12416 
      0.414732      4.42194 
      0.414747      4.75726 
      0.414758      5.00394 
      0.414768      5.27071 
      0.414779      5.55892 
      0.414789      5.86993 
        0.4148      6.20505 
       0.41481      6.56553 
      0.414826      7.15577 
      0.414842       7.8066 
      0.414857      8.51666 
      0.414873      9.28148 
      0.414896      10.4847 
      0.414932      12.4079 
       0.41495      13.3119 
      0.414961      13.8593 
      0.414973      14.3441 
      0.414987      14.7957 
         0.415      15.1353 
       0.41501      15.3099 
       0.41502      15.4131 
      0.415029      15.4447 
      0.415042      15.3949 
      0.415055      15.2352 
      0.415068       14.979 
      0.415081      14.6422 
      0.415098      14.0974 
      0.415124      13.1527 
      0.415176      11.1742 
      0.415202      10.2678 
      0.415219      9.70947 
      0.415236      9.19071 
      0.415253      8.71158 
       0.41527      8.27087 
      0.415287      7.86651 
      0.415304      7.49606 
      0.415323      7.12093 
      0.415342      6.78076 
      0.415361      6.47202 
      0.415381      6.19148 
      0.415409       5.8171 
      0.415438      5.49076 
      0.415466      5.20499 
      0.415495      4.95359 
      0.415523       4.7314 
      0.415552      4.53413 
       0.41559      4.30377 
      0.415628      4.10222 
      0.415667      3.92493 
      0.415706      3.76995 
      0.415745      3.63366 
      0.415803      3.46001 
      0.415861      3.31376 
      0.415918      3.18881 
      0.415988       3.0603 
      0.416057      2.95147 
      0.416142      2.83992 
      0.416218      2.75474 
      0.416332      2.64801 
      0.416446      2.56059 
       0.41656      2.48773 
      0.416712      2.40763 
      0.416855      2.34604 
      0.417055      2.27537 
      0.417307      2.20516 
      0.417566      2.14835 
      0.417863      2.09647 
      0.418237      2.04494 
      0.418629      2.00223 
      0.419153      1.95753 
      0.419742      1.91858 
      0.420593      1.87561 
      0.421772      1.83225 
      0.423163      1.79562 
      0.425045      1.76077 
      0.427412      1.73165 
      0.430209      1.71115 
      0.433005      1.70357 
       0.43322      1.70352 
      0.435371      1.70903 
      0.437093      1.72329 
      0.438598      1.74724 
      0.439755      1.77668 
      0.440621      1.80853 
       0.44146      1.85053 
      0.442169      1.89841 
      0.442772      1.95118 
      0.443288      2.00844 
      0.443804      2.08028 
      0.444235      2.15485 
      0.444579      2.22645 
      0.444923      2.31139 
      0.445267      2.41278 
      0.445525      2.50148 
      0.445784      2.60454 
      0.446042      2.72243 
        0.4463      2.86035 
      0.446472      2.96398 
      0.446644      3.07861 
      0.446816      3.20551 
      0.446988      3.34604 
       0.44716      3.50165 
      0.447332      3.67387 
      0.447505      3.86419 
      0.447591      3.96508 
      0.447763      4.18507 
      0.447935      4.42623 
      0.448107      4.68905 
      0.448279      4.97315 
      0.448451      5.27718 
      0.448903      6.13697 
      0.449183      6.66852 
      0.449355      6.96847 
      0.449527      7.23011 
      0.449656      7.39152 
      0.449785      7.51848 
      0.449912      7.60321 
      0.450034      7.64851 
      0.450129      7.65479 
      0.450258      7.62643 
      0.450387      7.55784 
      0.450473      7.49061 
      0.450645      7.31113 
      0.450817      7.08344 
       0.45099      6.82178 
      0.451721      5.59648 
      0.451979      5.19609 
      0.452237      4.82941 
      0.452409      4.60724 
      0.452581      4.40215 
      0.452754      4.21348 
      0.452926      4.04035 
      0.453098      3.88169 
      0.453356      3.66929 
      0.453614      3.48154 
      0.453872      3.31822 
       0.45413      3.17338 
      0.454389      3.04674 
      0.454733      2.89965 
      0.455077      2.77405 
      0.455421      2.66615 
      0.455851      2.55136 
      0.456282      2.45523 
      0.456712      2.37337 
      0.457228      2.29076 
      0.457831      2.21118 
       0.45854      2.13501 
      0.459207      2.07658 
      0.460111      2.01276 
      0.461186      1.95351 
      0.462477      1.89915 
      0.463983      1.85149 
      0.465704      1.81065 
      0.467855      1.77304 
      0.470652      1.73808 
      0.474524      1.70506 
       0.47958      1.67645 
      0.487109      1.64941 
      0.498256      1.62498 
      0.499905      1.62227 
      0.499935      1.62549 
      0.499945      1.63408 
      0.499952      1.64758 
      0.499957       1.6648 
      0.499963      1.69069 
      0.499968      1.72775 
      0.499973      1.77826 
      0.499978      1.84386 
      0.499983      1.92492 
      0.499988      2.02035 
      0.499993      2.12729 
      0.500007       2.4348 
      0.500014      2.57628 
      0.500019      2.66768 
      0.500024      2.74373 
      0.500029      2.80396 
      0.500034      2.84931 
      0.500041      2.89021 
      0.500048      2.91423 
      0.500055      2.92715 
      0.500076      2.93753 
       0.50011      2.93817 
       0.55776      2.89838 
      0.612757      2.87918 
          0.65      2.87367 
      0.719891      2.88146 
      0.776752      2.90023 
      0.868073      2.94352 
      0.976995      3.01574 
        1.1634      3.16356 
       1.44994       3.4001 
       1.64546      3.54481 
        1.8127      3.64689 
       2.02822      3.74754 
       2.23104      3.81367 
       2.43386      3.85519 
       2.65528      3.87711 
           2.8      3.88258 
       3.14374      3.86601 
       3.57442      3.81412 
       3.91232       3.7593 
             4      3.52454 
           4.2       3.3883 
       4.37343      3.30029 
           4.4      3.26189 
       4.59807      3.15671 
           4.6       3.1259 
       4.70901      3.02337 
           4.8       2.8493 
             5      2.71928 
           5.2      2.60953 
       5.25384      2.59819 
       5.37126      2.52605 
           5.4      2.48867 
       5.42315      2.48979 
       5.48279      2.45566 
       5.57587      2.36872 
           5.6      2.33721 
           5.8      2.24597 
       6.04232      2.15531 
           6.4      2.04019 
       6.47847      2.03225 
           6.6      1.97794 
       6.75333      1.94625 
       6.78885       1.9314 
           6.8       1.9197 
       6.93436      1.89792 
             7      1.86424 
        7.4522      1.74539 
       7.91004      1.63887 
           8.5      1.52037 
       9.09888      1.41882 
       9.90778      1.29884 
            10      1.28548 
       10.1411      1.28768 
       10.1556      1.28791 
       10.2989      1.26263 
       10.4442      1.23699 
          10.5      1.22714 
       10.6481      1.21162 
       10.7984      1.19587 
       10.9507      1.17991 
            11      1.17474 
       11.1552      1.16043 
       11.3126      1.14592 
       11.4722       1.1312 
       11.5458      1.12441 
       11.7087      1.11145 
       11.8739      1.09831 
       12.0414      1.08498 
        12.138      1.07729 
       12.3092      1.06551 
       12.4829      1.05356 
          12.5      1.05238 
       12.6764      1.04177 
       12.8552      1.03102 
            13      1.02231 
       13.1834       1.0134 
       13.3694      1.00437 
        13.558     0.995207 
       13.6899     0.988801 
        13.883      0.98145 
       14.0789     0.973996 
       14.2345     0.968074 
       14.4353     0.961941 
        14.639     0.955721 
         14.68     0.954468 
       14.8871     0.949174 
            15     0.946288 
       15.2116     0.942595 
       15.4262      0.93885 
       15.6439     0.935053 
       15.8646     0.931202 
       15.9304     0.930053 
       16.1551     0.928172 
       16.3831     0.926264 
       16.6142     0.924329 
       16.7094     0.923532 
       16.9451     0.922937 
       17.1842     0.922333 
       17.2884     0.922069 
       17.5323     0.922743 
       17.7797     0.923427 
            18     0.924035 
       18.2539     0.925808 
          18.5     0.927526 
        18.761     0.930717 
       19.0257     0.933953 
       19.2941     0.937235 
          19.5     0.939753 
       19.7751     0.944447 
            20     0.948285 
       20.2822     0.954068 
       20.5683     0.959933 
       20.8585      0.96588 
            21      0.96878 
       21.2963     0.976178 
       21.5967      0.98368 
       21.9014     0.991288 
            22      0.99375 
       22.3104      1.00258 
       22.6251      1.01154 
       22.9443      1.02062 
            23       1.0222 
       23.3245      1.03257 
       23.6536      1.04308 
       23.9873      1.05374 
       24.3257      1.06456 
       24.6689      1.07552 
            25       1.0861 
       25.3527      1.09792 
       25.7104      1.10992 
       26.0731      1.12208 
        26.441      1.13441 
        26.814      1.14691 
       27.1923       1.1596 
       27.5759      1.17246 
        27.965       1.1855 
       28.3595      1.19873 
       28.7596      1.21214 
            29       1.2202 
       29.4091      1.23284 
        29.824      1.24566 
       30.2448      1.25866 
       30.6715      1.27185 
            31        1.282 
       31.4374      1.29414 
       31.8809      1.30644 
       32.3307      1.31893 
       32.7868      1.33158 
            33       1.3375 
       33.4656      1.34874 
       33.9377      1.36015 
       34.4165      1.37171 
       34.9021      1.38343 
            35       1.3858 
       35.4938      1.39582 
       35.9945      1.40599 
       36.5024       1.4163 
            37       1.4264 
        37.522      1.43501 
       38.0514      1.44375 
       38.5882      1.45261 
            39       1.4594 
       39.5502      1.46642 
       40.1082      1.47353 
       40.6741      1.48074 
            41       1.4849 
       41.5784      1.49019 
        42.165      1.49556 
       42.7599        1.501 
            43       1.5032 
       43.6067      1.50669 
       44.2219      1.51023 
       44.8458      1.51381 
            45       1.5147 
       45.6349      1.51595 
       46.2787      1.51721 
       46.9316       1.5185 
       47.5937       1.5198 
            48       1.5206 
       48.6772      1.51922 
       49.3639      1.51783 
       50.0604      1.51641 
       50.7666      1.51497 
            51       1.5145 
       51.7195      1.51066 
       52.4492      1.50677 
       53.1892      1.50282 
       53.9396      1.49882 
            54       1.4985 
       54.7618      1.49241 
       55.5344      1.48622 
       56.3179      1.47996 
            57       1.4745 
       57.8042      1.46614 
       58.6197      1.45766 
       59.4467      1.44905 
       60.2854      1.44033 
            61       1.4329 
       61.8606      1.42211 
       62.7333      1.41116 
       63.6184      1.40007 
       64.5159      1.38881 
       65.4261       1.3774 
            66       1.3702 
       66.9311      1.35705 
       67.8754      1.34371 
        68.833      1.33018 
       69.8041      1.31647 
       70.7889      1.30256 
       71.7877      1.28845 
       72.8004      1.27414 
       73.8275      1.25964 
            74       1.2572 
        75.044      1.24218 
       76.1027      1.22696 
       77.1764      1.21151 
       78.2652      1.19585 
       79.3694      1.17997 
       80.4892      1.16386 
       81.6247      1.14753 
       82.7763      1.13097 
       83.9441      1.11417 
       85.1284      1.09714 
            86       1.0846 
       87.2133       1.0683 
       88.4437      1.05176 
       89.6915        1.035 
       90.9569      1.01799 
       92.2401      1.00075 
            93      0.99054 
       94.3121     0.974249 
       95.6426     0.957727 
        96.992     0.940973 
       98.3604     0.923982 
            99      0.91604 
       100.397     0.899986 
       101.813     0.883706 
        103.25     0.867196 
           104      0.85857 
       105.467     0.843095 
       106.955     0.827402 
       108.464     0.811488 
       109.994     0.795349 
           110      0.79529 
       111.552     0.780555 
       113.126     0.765612 
       114.722     0.750458 
           116      0.73832 
       117.637     0.724062 
       119.296     0.709602 
           120      0.70347 
       121.693     0.690059 
        123.41     0.676458 
       125.151     0.662666 
           126      0.65594 
       127.778     0.643408 
        129.58     0.630699 
       131.408      0.61781 
           132      0.61364 
       133.862      0.60205 
       135.751     0.590297 
       137.666     0.578378 
           138       0.5763 
       139.947     0.565563 
       141.921     0.554674 
       143.924     0.543631 
           144      0.54321 
       146.032      0.53336 
       148.092     0.523371 
           150      0.51412 
       152.116     0.505144 
       154.262     0.496041 
           156      0.48867 
       158.201     0.480538 
       160.433     0.472291 
           162       0.4665 
       164.286      0.45919 
       166.603     0.451777 
           168      0.44731 
        170.37     0.440804 
       172.774     0.434206 
           174      0.43084 
       176.455     0.425116 
       178.944     0.419312 
           180      0.41685 
       182.539     0.411885 
       185.115     0.406851 
           186      0.40512 
       188.624     0.400851 
       191.285     0.396523 
           192      0.39536 
       194.709     0.392042 
       197.456     0.388677 
           200      0.38556 
//
#-------------------------------------------------------------------------------
