#ZVView-data-copy:  10-Jan-2025 23:23:13
#=======================================
#
#name:   ENDF/B-VIII.0: NA-23(N,EL)NA-23-L0
#X.axis: Incident Energy
#Y.axis: Cross Section
#wdata:  2
#ldata:  2081
#data...
#            X            Y
#          MeV        barns
         1e-11      40.2968 
   1.10304e-11      38.3802 
   1.21669e-11       36.556 
   1.34206e-11      34.8197 
   1.48034e-11      33.1671 
   1.63287e-11      31.5943 
   1.80111e-11      30.0974 
   1.98669e-11      28.6729 
   2.19139e-11      27.3174 
   2.41719e-11      26.0275 
   2.66625e-11      24.8002 
   2.94097e-11      23.6326 
     3.244e-11      22.5218 
   3.57825e-11      21.4651 
   3.94694e-11        20.46 
   4.35362e-11      19.5041 
   4.80221e-11      18.5951 
   5.29701e-11      17.7308 
    5.8428e-11      16.9091 
   6.44483e-11      16.1281 
   7.10888e-11      15.3858 
   7.84136e-11      14.6804 
   8.64931e-11      14.0103 
   9.60781e-11      13.3295 
    1.0672e-10      12.6857 
   1.18547e-10      12.0766 
   1.31677e-10       11.501 
    1.4627e-10      10.9567 
   1.62471e-10      10.4429 
   1.80476e-10      9.95747 
   2.00465e-10      9.49961 
   2.22681e-10      9.06755 
   2.47345e-10       8.6605 
   2.74756e-10       8.2769 
   3.05188e-10      7.91601 
   3.39009e-10      7.57645 
   3.76558e-10      7.25755 
   4.18288e-10      6.95805 
   4.67897e-10      6.65921 
   5.23389e-10      6.38055 
   5.85462e-10      6.12108 
   6.54897e-10      5.87986 
   7.32567e-10      5.65597 
   8.25188e-10      5.43615 
   9.29566e-10      5.23381 
    1.04709e-9      5.04815 
     1.1878e-9      4.86855 
    1.34742e-9      4.70538 
    1.52849e-9      4.55757 
    1.74612e-9      4.41702 
    2.00871e-9      4.28499 
    2.32697e-9       4.1624 
    2.71467e-9      4.04987 
    3.18932e-9      3.94777 
     3.7732e-9      3.85616 
    4.52695e-9      3.77175 
    5.50789e-9      3.69545 
    6.84355e-9      3.62554 
    8.68389e-9      3.56295 
    1.13322e-8      3.50652 
    1.53158e-8      3.45556 
    2.14369e-8      3.41104 
    2.52419e-8      3.39359 
       2.53e-8      3.39336 
    3.82488e-8      3.35987 
    6.93729e-8      3.32367 
    1.24948e-7      3.29144 
    2.21915e-7      3.26355 
     1.0076e-6      3.19376 
    1.02842e-5      3.13045 
    7.78681e-5      3.14105 
   0.000150426      3.15462 
   0.000401072      3.22264 
   0.000577316      3.28797 
    0.00059788      3.29771 
   0.000602097      3.29502 
   0.000707336       3.3681 
   0.000796806      3.45211 
    0.00087275      3.53348 
   0.000949283      3.63265 
    0.00103936      3.77787 
    0.00110697      3.91273 
    0.00117039      4.06143 
    0.00122923      4.22243 
    0.00130301        4.458 
    0.00134949       4.6338 
    0.00140741      4.88041 
    0.00145518      5.11396 
    0.00150151      5.38061 
    0.00154124      5.63127 
    0.00156808      5.81509 
    0.00160571      6.10643 
    0.00164335      6.44446 
    0.00168098      6.83998 
    0.00171861      7.28647 
    0.00173743      7.53627 
    0.00176566      7.95667 
    0.00179388      8.41389 
    0.00182211      8.91885 
    0.00184444      9.35581 
    0.00185736      9.61732 
    0.00188356      10.1962 
    0.00190678      10.7512 
    0.00193407      11.4709 
    0.00195947      12.2043 
    0.00198205      12.9215 
    0.00200463      13.6993 
    0.00202721      14.5533 
    0.00204603      15.3301 
    0.00206458      16.1435 
    0.00208634      17.1861 
     0.0021099      18.4343 
    0.00213214      19.7288 
    0.00215517      21.2189 
    0.00217775        22.83 
     0.0021928      24.0053 
    0.00220786      25.2674 
    0.00222291      26.6246 
    0.00223796      28.0858 
    0.00225302      29.6611 
    0.00226807      31.3616 
    0.00228312      33.1998 
    0.00229818      35.1898 
    0.00231323      37.3472 
    0.00232829      39.6896 
    0.00234334      42.2369 
    0.00235839      45.0111 
    0.00237345      48.0373 
     0.0023885      51.3436 
    0.00240355      54.9619 
    0.00241861      58.9277 
    0.00243366      63.2813 
    0.00244871      68.0681 
    0.00246377      73.3388 
    0.00247882      79.1504 
    0.00249387      85.5662 
    0.00250893      92.6441 
    0.00252022      98.4405 
    0.00253151        104.7 
     0.0025428       111.46 
    0.00255409      118.746 
    0.00256538      126.612 
    0.00257667      135.083 
    0.00258796      144.212 
    0.00259925       154.02 
    0.00261054      164.555 
    0.00262936      183.795 
    0.00264441       200.66 
    0.00265946       218.81 
    0.00267452      238.106 
    0.00270274      276.415 
    0.00272721      309.808 
    0.00274414      331.365 
    0.00275543      344.304 
    0.00276672      355.651 
    0.00277801      365.032 
     0.0027893      372.135 
    0.00280059      376.716 
    0.00280962      378.553 
    0.00281301      378.723 
    0.00282468      377.556 
    0.00283634      373.694 
    0.00284763      367.514 
    0.00285892      359.261 
    0.00287021      349.092 
     0.0028815      337.753 
    0.00289844      318.791 
    0.00295301      253.615 
    0.00296806      236.623 
    0.00298312       220.55 
    0.00299817      205.499 
    0.00301322      191.512 
    0.00302075      184.859 
     0.0030358      172.454 
    0.00305086      161.051 
    0.00306591      150.591 
    0.00308096      141.008 
    0.00309602      132.232 
    0.00311107      124.197 
    0.00312613      116.836 
    0.00314118      110.088 
    0.00315623      103.896 
    0.00317129      98.2076 
    0.00318634      92.9759 
    0.00320139      88.1573 
    0.00321645       83.713 
     0.0032315      79.6079 
    0.00324655      75.8106 
    0.00326161      72.2926 
    0.00328419      67.4966 
    0.00330677      63.1739 
    0.00332935      59.3051 
    0.00335193      55.7969 
    0.00337451      52.6365 
    0.00339709      49.7544 
    0.00341967      47.1422 
    0.00344225      44.7474 
    0.00347236      41.8727 
    0.00350247      39.3071 
    0.00353257      37.0077 
    0.00356644       34.696 
    0.00360031      32.6322 
    0.00363042      30.9955 
    0.00365771      29.6197 
     0.0036944      27.9422 
    0.00372968      26.5012 
    0.00376496      25.1882 
     0.0038073      23.7747 
    0.00384493      22.6437 
    0.00388257      21.6251 
     0.0039202      20.6856 
    0.00395784      19.8259 
    0.00399547       19.037 
    0.00405192      17.9646 
    0.00410837       17.022 
    0.00416482       16.173 
    0.00422127      15.4185 
    0.00427773      14.7332 
    0.00435299      13.9235 
    0.00442826      13.2106 
    0.00450353      12.5791 
    0.00459762      11.8867 
     0.0046917      11.2803 
     0.0048046        10.65 
     0.0049175      10.1055 
     0.0050257      9.65328 
    0.00515742      9.17958 
    0.00529149      8.76397 
    0.00539734      8.47958 
    0.00553846      8.15827 
    0.00571487      7.81714 
    0.00590284      7.51121 
    0.00610297      7.21979 
    0.00632067      6.95286 
     0.0065734      6.69302 
    0.00688834      6.41776 
    0.00718285      6.20258 
    0.00755396      5.98001 
    0.00798048      5.76227 
    0.00844046      5.57294 
    0.00904125      5.36989 
     0.0096668      5.20168 
     0.0104787      5.02733 
     0.0113312      4.88352 
     0.0123453      4.74544 
     0.0136063      4.61239 
     0.0151824      4.48404 
     0.0170739      4.36832 
     0.0194165       4.2614 
     0.0211719      4.20134 
     0.0248111      4.13091 
     0.0295753      4.07565 
      0.035173      4.04335 
     0.0353393      4.05035 
     0.0353541      4.06137 
     0.0353604      4.07914 
     0.0353641      4.10641 
     0.0353674      4.15587 
     0.0353696      4.21014 
     0.0353718      4.28813 
     0.0353735      4.37031 
     0.0353753      4.47155 
     0.0353779       4.6567 
     0.0353837      5.12039 
     0.0353858      5.25731 
     0.0353872      5.32401 
     0.0353887       5.3677 
       0.03539      5.38043 
     0.0353915      5.36351 
     0.0353929       5.3194 
     0.0353943      5.25086 
     0.0353965      5.10946 
     0.0354024      4.63281 
     0.0354051      4.45256 
     0.0354068      4.35504 
     0.0354092       4.2532 
     0.0354115      4.18194 
      0.035414      4.13373 
     0.0354164      4.10353 
     0.0354202      4.07801 
     0.0354268       4.0611 
     0.0354609      4.04646 
     0.0381972      4.03758 
     0.0384754      4.03758 
      0.040011      4.03948 
     0.0432048      4.02321 
     0.0451522      4.03637 
     0.0464736      4.06949 
     0.0474334      4.11888 
     0.0481568      4.18281 
     0.0487132      4.25861 
     0.0491583      4.34601 
     0.0495478      4.45209 
     0.0498816      4.57611 
     0.0501598      4.71367 
     0.0503267      4.81507 
     0.0505354       4.9706 
     0.0506773      5.09876 
     0.0508386      5.27275 
     0.0509833      5.44293 
     0.0511279      5.64937 
     0.0512615      5.88352 
     0.0513505      6.06845 
     0.0514395      6.28131 
     0.0515285      6.52735 
     0.0516176      6.81184 
     0.0517066      7.12864 
     0.0517734      7.40365 
     0.0518401      7.71518 
     0.0519069      8.07175 
     0.0519737      8.47795 
     0.0520404      8.94578 
     0.0521072      9.48202 
     0.0521517      9.88542 
     0.0521962        10.33 
     0.0522407      10.8205 
     0.0522853      11.3628 
     0.0523298      11.9731 
     0.0523743      12.6518 
     0.0524188      13.4019 
     0.0524633      14.2314 
     0.0525078      15.1486 
     0.0525523      16.1619 
     0.0525968      17.2795 
     0.0526413      18.5089 
     0.0526859      19.8554 
     0.0527304      21.3212 
     0.0527749      22.9033 
     0.0528416      25.4712 
     0.0529835      31.2342 
     0.0530308      33.0039 
     0.0530642      34.1372 
     0.0530976      35.1004 
      0.053131      35.8699 
     0.0531644       36.416 
     0.0531866      36.6431 
       0.05322      36.7762 
     0.0532492      36.6668 
     0.0532784      36.3694 
      0.053309      35.8594 
     0.0533424      35.0959 
     0.0533758      34.1478 
     0.0534314      32.2547 
      0.053501      29.5801 
     0.0535984      25.7381 
     0.0536651      23.2572 
     0.0537096      21.7272 
     0.0537541      20.3074 
     0.0537987      19.0007 
     0.0538432      17.8048 
     0.0538877      16.7147 
     0.0539322      15.7236 
     0.0539767       14.824 
     0.0540212      14.0079 
     0.0540657      13.2676 
     0.0541102      12.5958 
     0.0541548      11.9857 
     0.0541993      11.4309 
     0.0542438      10.9259 
     0.0542883      10.4655 
     0.0543551      9.84966 
     0.0544218      9.30852 
     0.0544886       8.8346 
     0.0545554      8.41515 
     0.0546221      8.04501 
     0.0546889      7.71511 
     0.0547779      7.33068 
     0.0548669      6.99899 
      0.054956       6.7163 
      0.055045      6.47098 
      0.055134      6.25666 
     0.0552676      5.98324 
     0.0554067      5.74822 
     0.0555291      5.57549 
     0.0556904       5.3849 
     0.0558351      5.24425 
     0.0560316      5.08894 
     0.0563358      4.87286 
      0.056614      4.71472 
     0.0568922      4.58768 
     0.0572261      4.46651 
     0.0576156      4.35585 
     0.0581163      4.24677 
     0.0587284      4.14788 
     0.0594517       4.0619 
     0.0604532      3.97663 
     0.0618094      3.90702 
     0.0636525      3.84666 
     0.0665736      3.78792 
     0.0724158      3.71787 
     0.0819754      3.64256 
     0.0916116      3.59339 
      0.101627      3.52816 
      0.116437      3.45722 
      0.116992      3.46323 
      0.117163      3.47916 
      0.117228      3.49788 
      0.117273      3.52729 
      0.117298      3.55781 
      0.117321      3.60829 
      0.117336      3.66373 
      0.117348      3.72862 
      0.117356      3.80173 
      0.117363      3.88983 
      0.117368      3.96895 
      0.117372       4.0512 
      0.117377      4.17438 
       0.11738      4.27632 
      0.117383      4.39747 
      0.117386      4.54099 
      0.117389      4.70965 
      0.117392      4.90591 
      0.117395      5.13103 
      0.117398      5.38499 
      0.117401       5.6653 
      0.117406       6.1239 
      0.117413      6.80417 
      0.117416      7.12609 
       0.11742      7.40394 
      0.117422       7.5831 
      0.117424      7.68636 
      0.117427      7.75696 
      0.117429      7.79271 
       0.11743      7.79712 
      0.117432      7.77121 
      0.117435      7.70002 
      0.117437      7.58629 
      0.117439      7.43436 
      0.117443        7.182 
      0.117446      6.88705 
      0.117457      5.77322 
       0.11746      5.47867 
      0.117463      5.20894 
      0.117466       4.9678 
      0.117469      4.75627 
      0.117472      4.57373 
      0.117475      4.41804 
      0.117478      4.28656 
      0.117482      4.17612 
      0.117485      4.08368 
      0.117489      3.98475 
      0.117493       3.9061 
      0.117499      3.81626 
      0.117504      3.75896 
      0.117514      3.68402 
      0.117523      3.63325 
      0.117534      3.59267 
      0.117549      3.55435 
      0.117573       3.5198 
      0.117613      3.48935 
      0.117702      3.46441 
      0.117926      3.45021 
      0.125791      3.40802 
      0.133945      3.37508 
      0.142398       3.3505 
      0.142932      3.35749 
      0.143014      3.37081 
       0.14305      3.39273 
      0.143066      3.42031 
      0.143075      3.44992 
      0.143082      3.48688 
       0.14309      3.55313 
      0.143097      3.63395 
      0.143117        3.909 
      0.143122       3.9621 
      0.143127      3.98645 
       0.14313      3.98706 
      0.143134      3.96891 
      0.143138      3.93401 
      0.143143      3.86595 
      0.143158      3.63753 
      0.143165      3.54393 
      0.143172      3.47502 
      0.143178      3.43539 
      0.143185      3.40401 
      0.143194      3.38062 
       0.14321      3.36127 
      0.143257      3.34735 
      0.144593      3.34113 
      0.162926      3.29828 
       0.16794      3.29161 
      0.176447      3.30658 
      0.180732      3.33003 
       0.18456      3.37402 
      0.186966      3.42502 
      0.189097      3.49356 
      0.189876      3.53129 
       0.18995      3.54414 
      0.189983      3.56437 
      0.189999      3.59272 
      0.190009      3.62854 
      0.190018      3.67745 
      0.190029      3.76291 
      0.190046      3.90827 
      0.190054      3.95597 
       0.19006      3.96648 
      0.190065      3.95855 
      0.190073      3.91706 
      0.190084       3.8247 
      0.190095       3.7284 
      0.190106      3.65485 
      0.190116      3.61379 
      0.190126      3.58774 
      0.190146      3.56381 
      0.190204         3.55 
      0.190241      3.54886 
      0.191035      3.58812 
      0.192181      3.66916 
      0.193167       3.7632 
      0.193955      3.86239 
      0.194842      3.99109 
      0.195434      4.10541 
      0.196124      4.27604 
      0.196518      4.39729 
      0.196912      4.54706 
      0.197208      4.68133 
      0.197503      4.84064 
        0.1977      4.96151 
      0.197996      5.17833 
      0.198292      5.43232 
      0.198588      5.72176 
      0.198883      6.05509 
       0.19908       6.3004 
      0.199376      6.72286 
      0.200115      7.85581 
      0.200411      8.26565 
      0.200608      8.49151 
        0.2008      8.66112 
      0.201002      8.78044 
      0.201189      8.82704 
      0.201345      8.81606 
      0.201495      8.76716 
      0.201594      8.69702 
      0.201791      8.50271 
      0.202086      8.13231 
       0.20253       7.4875 
      0.202825      7.05699 
      0.203121      6.67328 
      0.203417      6.32571 
      0.203713      6.01404 
       0.20391      5.82899 
      0.204205      5.59147 
      0.204501      5.38721 
      0.204729      5.25199 
      0.205015      5.11152 
        0.2053      4.99802 
      0.205729      4.86394 
      0.206158      4.76606 
      0.206443      4.71762 
      0.207015      4.65512 
      0.207547      4.62881 
        0.2083       4.6103 
      0.209015      4.62708 
      0.209729      4.67059 
      0.212157      4.85876 
      0.213014      4.90282 
      0.214029      4.92438 
      0.214729      4.90955 
        0.2153      4.87356 
      0.216157      4.78457 
      0.217014        4.672 
      0.219626      4.27829 
        0.2203      4.19661 
      0.221443      4.08258 
      0.222585      3.99292 
      0.224871      3.85368 
      0.226014      3.80612 
      0.227157      3.77938 
      0.228014      3.77337 
      0.229156      3.78949 
      0.229827      3.81613 
      0.230585      3.86834 
      0.231299      3.94022 
      0.231871      4.01771 
      0.232442       4.1188 
      0.232871      4.21348 
      0.233457       4.3756 
       0.23387      4.51128 
      0.234299      4.68745 
      0.234585      4.82941 
       0.23487      4.99488 
       0.23512      5.16231 
      0.235442      5.41269 
      0.235745      5.69343 
      0.236013      5.98467 
      0.236272      6.29905 
      0.236397      6.48536 
       0.23646      6.60836 
      0.236495      6.69981 
      0.236524      6.79633 
      0.236547      6.89443 
      0.236567      7.01597 
      0.236586      7.17162 
      0.236595      7.27503 
      0.236607      7.44634 
      0.236616      7.61455 
      0.236626      7.84888 
      0.236633      8.05281 
      0.236639      8.29961 
      0.236646      8.59629 
      0.236653      8.94826 
      0.236659      9.35674 
      0.236666      9.81657 
      0.236683      11.1262 
      0.236691      11.6107 
      0.236696      11.9072 
      0.236701      12.1238 
      0.236706      12.2296 
       0.23671      12.2681 
      0.236716      12.2181 
      0.236721      12.0774 
      0.236725      11.8668 
       0.23673      11.5952 
      0.236737      11.1651 
      0.236755      9.87711 
      0.236761      9.46941 
      0.236768      9.04605 
      0.236776      8.69126 
      0.236782      8.44262 
      0.236789      8.19747 
      0.236797      8.00414 
      0.236804      7.85233 
      0.236816      7.68325 
      0.236823      7.59956 
      0.236838      7.48002 
      0.236858      7.38638 
      0.236877      7.33418 
      0.236913      7.29684 
      0.236925      7.29505 
      0.236974      7.31936 
      0.237059      7.42154 
      0.237173      7.59994 
      0.237445      8.09561 
      0.238033      9.23836 
      0.238247      9.62262 
      0.238461      9.96054 
      0.238729       10.289 
       0.23889      10.4241 
      0.239071      10.5132 
      0.239211      10.5326 
      0.239371      10.5039 
      0.239532      10.4239 
      0.239639      10.3419 
      0.239853      10.1212 
      0.240067       9.8383 
      0.240281      9.50954 
      0.240762      8.68244 
      0.241404      7.55614 
      0.242233      6.16499 
      0.242617      5.76261 
      0.242685      5.72525 
      0.242696      5.72423 
      0.242729      5.73783 
      0.242757      5.77912 
      0.242777      5.83658 
      0.242798      5.92467 
      0.242819      6.05723 
      0.242835      6.18294 
       0.24285      6.33867 
      0.242865       6.5272 
       0.24288      6.74981 
      0.242896      7.00553 
      0.242919      7.44199 
      0.242968      8.46722 
      0.242985      8.76939 
         0.243      9.00594 
      0.243016      9.19258 
      0.243031      9.32634 
      0.243047        9.409 
      0.243066      9.44828 
       0.24307      9.44878 
      0.243092      9.41145 
      0.243114      9.31784 
      0.243151      9.07964 
      0.243214      8.61634 
      0.243263      8.28032 
      0.243313      7.98584 
      0.243379      7.65226 
      0.243444       7.3726 
      0.243517      7.11133 
      0.243589      6.88629 
      0.243677      6.64954 
      0.243806      6.34968 
      0.243889      6.17954 
       0.24393      6.10398 
      0.244027      5.97333 
      0.244206      5.77023 
      0.244387      5.59305 
      0.244683      5.34476 
      0.244996       5.1225 
       0.24511      5.04962 
      0.245482      4.87554 
      0.245935      4.70006 
       0.24643      4.54088 
      0.246924      4.40715 
      0.247583      4.25884 
      0.248242      4.13654 
      0.249066      4.01128 
      0.249976       3.8985 
        0.2511      3.78697 
      0.252388      3.68582 
      0.254105      3.58115 
      0.256252      3.48201 
      0.258814      3.39241 
      0.262128      3.30377 
      0.267225       3.1979 
       0.27793      3.00165 
      0.281498      2.92039 
      0.284302      2.83954 
      0.286494      2.75705 
      0.288125      2.67775 
      0.289348      2.60293 
       0.29047      2.51746 
      0.291387      2.43067 
      0.292101      2.34855 
      0.292713       2.2649 
      0.293273      2.17457 
      0.293793       2.0757 
      0.294222      1.98102 
      0.294568      1.89393 
      0.294935      1.79002 
      0.295302      1.67306 
      0.295669      1.54356 
      0.296281      1.31317 
      0.296465      1.25001 
      0.296587      1.21385 
      0.296709      1.18556 
      0.296801      1.17172 
      0.296893       1.1657 
      0.296969      1.16917 
      0.297046       1.1821 
      0.297097      1.19699 
      0.297148      1.21774 
      0.297199      1.24511 
       0.29725      1.27998 
        0.2973      1.32329 
      0.297351      1.37607 
      0.297402      1.43939 
      0.297441      1.49449 
      0.297479      1.55665 
      0.297517      1.62639 
      0.297555      1.70419 
      0.297594      1.79055 
      0.297632      1.88592 
       0.29767      1.99073 
      0.297708      2.10537 
      0.297754      2.25657 
        0.2978      2.42255 
      0.297846      2.60308 
      0.297892      2.79828 
      0.297943      3.03214 
      0.297994      3.28227 
       0.29807      3.68364 
      0.298174      4.26116 
      0.298329        5.136 
      0.298404      5.53264 
      0.298479      5.89581 
      0.298555      6.22015 
      0.298631       6.4962 
      0.298707      6.71947 
      0.298776      6.87669 
      0.298845       6.9959 
      0.298934      7.10173 
      0.299141      7.25042 
      0.299183      7.30661 
      0.299216      7.38635 
      0.299243      7.49992 
      0.299263      7.63111 
      0.299282       7.8149 
      0.299297      7.99643 
      0.299312        8.225 
      0.299327      8.51146 
      0.299342      8.85591 
      0.299376      9.75056 
      0.299388      10.0051 
      0.299398      10.1335 
      0.299405       10.188 
       0.29941      10.1952 
      0.299417      10.1666 
      0.299425       10.091 
      0.299435      9.91561 
      0.299445      9.67783 
      0.299479      8.73347 
      0.299492      8.39879 
      0.299505      8.10868 
      0.299519      7.86339 
      0.299532      7.65825 
       0.29955      7.43473 
      0.299568      7.26175 
      0.299586      7.12499 
      0.299606       7.0138 
      0.299633        6.901 
      0.299673      6.77224 
       0.29974       6.6137 
      0.299821      6.46713 
      0.299967      6.25452 
      0.300152      6.02659 
      0.300371      5.79364 
      0.300603      5.57848 
      0.300901      5.34148 
        0.3012      5.14135 
      0.301498      4.97121 
      0.301796      4.82544 
      0.302194      4.66149 
      0.302591      4.52472 
      0.303157      4.36566 
      0.303718      4.23917 
      0.304401      4.11631 
      0.304841      4.05802 
      0.304935      4.05394 
      0.305016      4.06446 
      0.305059      4.08806 
      0.305083      4.11667 
      0.305106       4.1691 
      0.305122      4.22749 
      0.305138      4.31258 
      0.305153      4.42487 
      0.305176      4.59833 
      0.305186      4.65623 
      0.305196       4.6849 
        0.3052      4.68667 
       0.30521      4.66658 
      0.305223       4.5989 
      0.305259      4.31084 
      0.305275      4.21632 
       0.30529      4.14964 
      0.305314      4.08748 
      0.305337      4.05157 
      0.305378      4.01699 
      0.305442       3.9899 
      0.305617      3.95438 
      0.306232      3.88288 
      0.307371      3.78359 
      0.308877      3.68462 
      0.310787      3.59208 
      0.313139      3.50915 
       0.31604      3.43495 
      0.320025      3.36261 
      0.325148      3.29728 
       0.33198      3.23799 
      0.340291      3.19087 
      0.345414      3.17593 
      0.347691      3.17469 
       0.35453        3.185 
      0.359531      3.24007 
       0.36363      3.30523 
      0.366818      3.37489 
       0.36955      3.45472 
      0.371827      3.53679 
      0.373649      3.61976 
      0.376836      3.79308 
      0.378203      3.88625 
      0.379569      3.99743 
      0.380935      4.12314 
      0.382301      4.24714 
      0.382881      4.31836 
      0.384123      4.49701 
      0.386514      4.88821 
      0.388905       5.2821 
      0.390043      5.44139 
      0.390954      5.53979 
      0.391887      5.60779 
      0.392707      5.63393 
      0.393003       5.6375 
      0.393914      5.62092 
      0.394825      5.57043 
      0.396646      5.41665 
       0.39905      5.18159 
      0.401883       4.7935 
      0.404616      4.44584 
      0.406437      4.24011 
      0.408259      4.06191 
      0.410081      3.90778 
      0.412358      3.74304 
       0.41497      3.58644 
      0.417367      3.49344 
      0.420099        3.411 
      0.422604      3.35885 
      0.423461      3.35027 
      0.423743      3.35016 
      0.425371      3.36344 
      0.426414      3.39082 
      0.427375      3.43758 
      0.428016      3.48994 
      0.428497      3.54967 
      0.428977       3.6279 
      0.429458       3.7323 
      0.430259      3.93781 
      0.430499      3.98465 
      0.430744      4.01075 
      0.430868      4.01393 
        0.4311      4.00264 
      0.431341      3.96885 
      0.431661      3.89536 
      0.432502      3.66794 
      0.432983      3.56451 
      0.433463      3.49526 
      0.433944      3.44826 
      0.434585      3.41032 
      0.435066      3.38271 
      0.435867      3.33754 
      0.436988      3.30061 
       0.43732       3.2948 
      0.438416      3.31314 
        0.4394      3.34974 
      0.440385       3.4089 
      0.441228      3.48377 
      0.441911      3.56776 
      0.442493      3.66297 
      0.443056      3.77759 
      0.443478      3.88113 
      0.443899      4.00509 
      0.444321      4.15001 
      0.444743      4.32256 
      0.445165      4.52646 
      0.445446      4.68198 
      0.445727       4.8541 
      0.446149      5.14476 
      0.446571      5.46045 
      0.447484      6.19962 
      0.447766      6.40713 
      0.448047      6.58345 
      0.448328      6.71452 
      0.448539      6.77568 
      0.448792      6.80467 
      0.449031      6.78141 
       0.44926      6.71705 
       0.44951      6.60784 
      0.449734      6.47865 
      0.450015      6.28146 
      0.450437       5.9519 
       0.45121      5.33034 
      0.451632      5.02136 
      0.451913      4.83558 
      0.452335      4.58947 
      0.452757      4.37758 
      0.453178      4.19626 
        0.4536      4.04178 
      0.454022      3.91046 
      0.454584      3.76364 
      0.455147      3.63128 
      0.455709      3.51899 
      0.456412      3.40191 
      0.457255      3.28795 
       0.45824      3.18131 
      0.459364      3.08399 
       0.46063      3.00575 
      0.462317      2.92417 
      0.464426       2.8456 
      0.466657       2.7819 
       0.47026      2.70234 
      0.475532      2.60957 
       0.48467      2.47546 
      0.494512      2.34853 
      0.499936      2.28669 
      0.499968      2.27599 
      0.500031      2.22656 
      0.500063      2.21562 
        0.5078      2.12375 
      0.508113      2.15104 
       0.50815      2.16187 
      0.508178       2.1819 
      0.508206      2.21427 
      0.508316      2.38327 
      0.508362      2.46136 
       0.50839      2.52058 
      0.508416      2.59029 
      0.508521      2.91705 
      0.508547      2.98994 
      0.508574      3.04676 
      0.508593       3.0694 
        0.5086      3.07192 
      0.508616      3.06674 
      0.508632      3.04674 
      0.508657      2.99657 
      0.508698      2.88487 
      0.508828      2.48299 
       0.50886      2.39853 
      0.508886      2.34634 
      0.508911      2.30408 
      0.508975      2.21448 
      0.509014      2.17476 
      0.509052      2.15352 
      0.509167      2.12273 
       0.50927      2.10025 
       0.51946       1.9251 
      0.522666      1.98859 
      0.526978      2.14024 
       0.52982      2.37459 
       0.53309      2.78428 
       0.53679      3.32334 
       0.53913      3.60367 
       0.54177      3.81878 
       0.54372      3.90411 
       0.54615      3.96005 
       0.54854      3.97265 
      0.554344      3.93754 
       0.56295      3.86371 
      0.563361      3.92948 
      0.563406      3.94751 
      0.563497      4.01874 
      0.563646      4.15298 
       0.56368      4.20276 
      0.563712      4.27095 
       0.56394      4.87089 
      0.563965       4.9198 
      0.563995      4.94716 
      0.563999      4.94778 
      0.564026      4.93286 
      0.564062      4.87592 
      0.564099      4.78961 
      0.564171      4.56766 
      0.564244      4.34013 
       0.56428      4.24451 
      0.564313      4.18024 
       0.56441      4.04125 
      0.564459      3.98655 
      0.564507      3.95516 
        0.5648      3.85059 
       0.56582      3.85451 
       0.56626      3.80123 
        0.5699      3.79806 
      0.574423      3.84612 
       0.58031      3.98555 
       0.58341       4.0709 
       0.58758      4.30075 
       0.59242      4.68543 
        0.5936      4.76491 
       0.59646      4.86142 
       0.59759      4.92425 
       0.59879      5.04933 
      0.599201      5.24774 
       0.59926      5.29127 
      0.599335      5.39251 
      0.599695      5.95408 
      0.599729      5.98178 
       0.59974      5.98265 
      0.599779      5.94986 
       0.59995      5.64146 
       0.60016      5.29154 
      0.600344      5.05765 
        0.6004      5.00037 
      0.600455      4.96661 
       0.60075      4.84994 
       0.60141      4.74552 
       0.60672      4.36732 
       0.60737      4.33532 
       0.60997      4.28148 
       0.61309      4.17915 
        0.6147      4.13078 
       0.61764       4.0856 
       0.61946      4.05399 
       0.62167      4.07248 
       0.62256      4.06761 
      0.624653      4.12709 
       0.62662      4.41601 
       0.62711      4.49884 
      0.628513      4.21369 
       0.62898      4.12331 
       0.63024       4.0857 
       0.63036      4.08537 
        0.6341        4.178 
      0.636335      4.24365 
       0.63796       4.2923 
       0.64279      4.43673 
       0.65278      4.80959 
       0.66335      5.33268 
       0.66822      5.59801 
       0.68139      6.56788 
      0.682485      6.79146 
       0.68252      6.81802 
      0.682581      6.90826 
       0.68301      7.71028 
      0.683369      8.41287 
      0.683407      8.45241 
       0.68342      8.45301 
      0.683461      8.40852 
      0.683664      7.94651 
      0.684029      7.16475 
       0.68407      7.10113 
      0.684116      7.06449 
        0.6848      6.89241 
       0.68679      7.02294 
       0.68878       7.2092 
       0.69577      7.77315 
      0.699755       8.0437 
       0.70113      8.12879 
       0.70444      8.26842 
       0.70775      8.34963 
       0.71035      8.38433 
       0.71426      8.28235 
       0.71817      8.05993 
       0.72254      7.70889 
       0.72606      7.35769 
       0.73188       6.6217 
       0.73478       6.2369 
       0.73868      5.70361 
       0.74486      4.90157 
       0.74683      4.74024 
      0.747574       4.7346 
      0.747653      4.74116 
      0.747706      4.77052 
       0.74789       4.9693 
      0.748061      5.15346 
        0.7481      5.17274 
      0.748139      5.16426 
      0.748336      5.00471 
      0.748573      4.80472 
       0.74873      4.68093 
      0.748873      4.63433 
        0.7493       4.5243 
       0.75004      4.38736 
       0.75491      4.15321 
       0.75726      4.08625 
       0.75894      4.05512 
      0.761205      4.15262 
       0.76347      4.19892 
       0.76431      4.55095 
       0.76515      4.91842 
       0.76566      5.38326 
       0.76616      5.51458 
        0.7665      5.76894 
      0.766875      5.91785 
         0.767      5.95801 
       0.76885      5.86035 
      0.771115        6.096 
        0.7717      6.16271 
       0.77321      6.43084 
       0.77607      6.60691 
       0.77791      6.65325 
      0.782025       6.5234 
       0.78614      6.36436 
        0.7895      6.17986 
       0.79605      5.72516 
       0.80445      5.17365 
       0.81016      4.85066 
       0.81822      4.46913 
       0.82729      4.16284 
       0.83266      3.99547 
       0.84055      3.82693 
       0.85046      3.63187 
       0.85785      3.55921 
       0.86574      3.53342 
      0.874137      3.56499 
       0.88035      3.63536 
       0.88657      3.86706 
       0.89228      4.16411 
       0.89916      4.76953 
       0.90229      5.10006 
        0.9057      5.37753 
       0.90752      5.54635 
      0.911432      5.53028 
       0.91321      5.46668 
       0.91503      5.34976 
       0.92276      4.66445 
       0.92868      4.18832 
       0.93369      3.87392 
       0.93641      3.69256 
       0.94324      3.37097 
       0.94642      3.26853 
       0.94961      3.10353 
       0.95257      3.03543 
       0.95905      2.93334 
       0.96212       2.8754 
       0.96463      2.85607 
      0.965711      2.92848 
      0.965768      2.94436 
      0.965853      2.99494 
      0.966365      3.35563 
      0.966407      3.39837 
      0.966436      3.44396 
      0.966461      3.50122 
      0.966492      3.59877 
      0.966535       3.7562 
       0.96662      4.08448 
      0.966652      4.18825 
      0.966684      4.26687 
      0.966705      4.30446 
      0.966748      4.35507 
      0.967066       4.6127 
       0.96713      4.64422 
      0.967148      4.64637 
      0.967237      4.62496 
      0.967771      4.41603 
      0.967843      4.36302 
      0.968163      4.00185 
      0.968217      3.93481 
      0.968252      3.87595 
      0.968284      3.80434 
      0.968327      3.68145 
      0.968412       3.3997 
      0.968455      3.27015 
      0.968483      3.20169 
      0.968512      3.15341 
       0.96854      3.12353 
      0.968611      3.08684 
      0.969123      2.89355 
       0.96918      2.87781 
      0.969307      2.86908 
       0.97122      2.83935 
      0.974168      2.91095 
       0.97646      3.04645 
       0.97919        3.303 
       0.98055      3.45857 
       0.98192       3.5124 
       0.98442       3.5051 
       0.98579      3.40907 
      0.987985       3.2318 
       0.98897       3.1553 
       0.99261      2.91061 
       0.99762      2.73564 
       0.99944      2.76137 
        1.0001      2.73262 
        1.0019      2.63536 
        1.0056      2.66022 
        1.0073      2.65599 
         1.009       2.6338 
       1.01249       2.6597 
        1.0176      2.78645 
        1.0236      3.04804 
         1.029      3.21054 
        1.0317      3.24082 
        1.0335      3.23529 
        1.0354      3.25688 
        1.0393      3.21817 
         1.044      3.23781 
         1.049      3.36434 
        1.0511      3.40097 
        1.0561      3.60758 
        1.0597      3.84539 
        1.0622      3.99594 
        1.0663      4.14671 
        1.0695       4.1677 
       1.07339      4.07225 
        1.0784      3.85766 
       1.08145      3.71205 
        1.0829      3.64613 
        1.0852      3.49807 
        1.0866       3.3741 
       1.08769       3.4686 
        1.0891      3.77593 
          1.09      3.84953 
        1.0942      3.70791 
        1.0984      3.58695 
        1.1088       3.3117 
        1.1096      3.29635 
        1.1112      3.48983 
        1.1131      3.24047 
        1.1241      3.11294 
        1.1299      2.99674 
        1.1337      2.94631 
        1.1405       2.8975 
        1.1415      2.89379 
        1.1456      2.99571 
        1.1489      2.85264 
        1.1551      2.68539 
        1.1583      2.64725 
        1.1592        2.639 
        1.1635      2.68282 
        1.1678      2.75527 
        1.1708      2.87548 
        1.1735        2.928 
       1.17597      2.89222 
        1.1768      2.86762 
        1.1801      2.75075 
        1.1833       2.6605 
        1.1868      2.57987 
        1.1922      2.52655 
       1.19651      2.53805 
        1.1991      2.57007 
        1.2006      2.57292 
        1.2049      2.66591 
        1.2063      2.70995 
        1.2106      2.81736 
        1.2128      3.07393 
        1.2147      2.96839 
        1.2198      3.06157 
        1.2242      3.09428 
        1.2252      3.10971 
        1.2293      3.11846 
        1.2335      3.05918 
        1.2377       2.9891 
         1.242      2.81561 
        1.2444      2.74237 
        1.2545      2.51608 
        1.2632      2.39484 
        1.2683      2.38081 
        1.2718      2.33965 
        1.2789       2.3059 
       1.28175      2.30575 
        1.2846      2.30594 
       1.29025      2.36958 
        1.2959      2.44567 
        1.2981      2.56389 
        1.3012      2.70309 
        1.3048      3.06017 
        1.3065      3.14219 
        1.3096      3.43004 
        1.3122      3.65285 
        1.3141       3.7418 
        1.3162      3.79076 
       1.31775       3.7536 
        1.3193      3.69024 
         1.321      3.58287 
         1.322       3.8459 
       1.32209      3.83365 
        1.3234       3.4857 
        1.3253      3.28975 
        1.3298      3.00928 
        1.3332      2.87183 
         1.337       2.6723 
        1.3434      2.50987 
        1.3513      2.37009 
        1.3548      2.35481 
        1.3553      2.35506 
        1.3637      2.34687 
         1.366      2.32059 
        1.3687      2.27597 
        1.3722      2.22911 
        1.3764      2.23076 
        1.3806      2.27699 
        1.3834      2.33148 
         1.385      2.33316 
        1.3873      2.32496 
        1.3881       2.4668 
        1.3889      2.61644 
       1.38954      2.83405 
       1.39055      3.18606 
        1.3906      3.21026 
       1.39073      3.28834 
       1.39104      3.50028 
        1.3911      3.53478 
       1.39121      3.57142 
       1.39194      3.74487 
         1.392      3.74931 
        1.3921       3.7321 
       1.39296      3.49641 
        1.3942      3.06642 
       1.39525      2.84487 
        1.3956      2.77467 
        1.3975      2.59888 
        1.3993      2.54434 
        1.4039      2.43696 
        1.4113      2.38198 
        1.4194      2.38668 
        1.4262       2.2665 
        1.4268       2.2604 
       1.42936      2.55871 
        1.4294      2.55904 
       1.42951      2.54586 
       1.43068      2.32777 
        1.4311      2.25227 
        1.4335      2.21363 
        1.4387      2.23535 
        1.4511      2.20887 
        1.4554      2.21262 
         1.464      2.19063 
       1.47046      2.21333 
        1.4728      2.29785 
       1.47852      2.17303 
         1.485      2.09379 
        1.4902      2.00656 
        1.4931      1.96528 
        1.4957      1.97317 
        1.4976      2.13149 
        1.5008      2.22101 
       1.50475      2.15941 
        1.5087      2.07456 
        1.5154      1.97605 
        1.5259      1.93325 
         1.537      1.91346 
        1.5404      1.93337 
        1.5438      2.03194 
       1.54533      1.97618 
       1.54685      1.94825 
        1.5499       1.9005 
       1.55682      1.93896 
       1.55698      1.94689 
       1.56012      2.23559 
        1.5602      2.23857 
       1.56034       2.2265 
        1.5625      1.97477 
       1.56272      1.97203 
        1.5695      1.97338 
        1.5751      2.06389 
        1.5793      2.20088 
        1.5824      2.28722 
        1.5879      2.55988 
        1.5923      2.94087 
        1.5958      3.34285 
        1.5991      3.82553 
        1.6011      4.18017 
        1.6017       4.3088 
        1.6032      4.42031 
       1.60429      4.30962 
        1.6061        4.089 
        1.6078      3.86004 
        1.6105      3.43555 
        1.6131       3.1599 
        1.6157      2.84377 
        1.6195      2.58097 
         1.626      2.36928 
        1.6309      2.23031 
       1.63203        2.331 
        1.6324      2.34833 
        1.6339      2.39752 
        1.6362      2.28784 
        1.6388      2.07097 
        1.6415      1.97467 
        1.6505      1.86962 
        1.6628      1.83887 
        1.6651      1.82045 
        1.6748      1.67947 
        1.6775      1.41787 
       1.67973      1.28795 
       1.67976      1.28732 
       1.67983      1.29043 
       1.67999      1.31275 
       1.68095      1.46172 
       1.68159      1.58158 
       1.68364      1.97129 
        1.6839      2.01627 
        1.6854      2.07583 
        1.6889      2.19644 
        1.6938      2.33287 
        1.6965      2.37066 
       1.70145      2.27542 
        1.7064      2.23441 
        1.7114      2.41822 
        1.7164      2.78875 
        1.7196      2.98949 
       1.72073      2.86778 
        1.7234      2.80735 
        1.7357      2.85541 
         1.739      2.84361 
        1.7415      2.84522 
        1.7465      2.71328 
        1.7564      2.40513 
       1.75809      2.40128 
        1.7582      2.40281 
        1.7603      2.54523 
        1.7625       2.3205 
       1.76655      2.10695 
        1.7679      2.03979 
        1.7698      2.20524 
       1.76998      2.19248 
        1.7737      1.84069 
        1.7807      1.78496 
        1.7834      1.77139 
        1.7852      1.83312 
         1.787      2.00555 
        1.7892      1.92642 
        1.7913      2.05983 
        1.7961      2.13437 
        1.7983      2.28759 
       1.79943      2.46638 
        1.7995      2.48313 
       1.79965       2.5346 
        1.8007      2.93203 
       1.80183      3.30589 
        1.8019      3.31885 
       1.80199      3.31082 
       1.80274      3.14023 
       1.80281      3.10991 
       1.80293      3.02914 
       1.80335      2.70542 
       1.80344      2.65547 
       1.80362      2.57868 
       1.80393      2.46384 
         1.804      2.44253 
       1.80411      2.43075 
        1.8086        2.299 
         1.826      1.99481 
        1.8359      1.86404 
        1.8403        1.847 
        1.8483      1.78618 
        1.8629      1.60501 
        1.8793      1.34706 
        1.8844      1.29807 
       1.88965      1.34323 
        1.8956      1.46526 
       1.90122      1.46368 
       1.90135       1.4651 
       1.90147      1.47489 
       1.90343      1.78615 
        1.9035      1.79152 
       1.90361      1.78797 
       1.90688      1.50509 
       1.90705      1.49957 
        1.9117      1.41105 
        1.9141       1.5192 
        1.9184      1.42329 
        1.9226      1.39252 
       1.92755      1.68051 
        1.9281      1.71383 
       1.93133      2.04249 
       1.93143      2.06373 
       1.93165       2.1432 
       1.93234      2.40588 
        1.9324      2.43357 
       1.93263      2.55778 
       1.93324      2.91576 
       1.93334      2.98427 
       1.93352      3.14859 
       1.93358      3.18436 
       1.93364      3.19945 
       1.93365      3.19991 
       1.93375      3.18388 
       1.93473      2.93279 
        1.9348      2.90833 
       1.93495      2.84052 
       1.93593      2.36158 
         1.936      2.33227 
       1.93609      2.31033 
       1.93712      2.15947 
        1.9375      2.10787 
        1.9393      2.04821 
       1.94786      2.13615 
       1.95129      2.18037 
         1.953      2.20573 
        1.9569      2.49921 
        1.9615      2.65855 
        1.9666      2.63511 
       1.96931      2.96747 
        1.9694      2.97278 
       1.96961      2.95589 
       1.97325      2.54811 
        1.9749      2.44022 
        1.9782      2.23152 
        1.9882      2.12935 
        1.9964      2.12456 
       1.99807      2.12924 
        2.0117      2.30471 
         2.015       2.3386 
        2.0182      2.59496 
          2.02      2.71474 
       2.02518      2.53407 
        2.0269      2.46789 
        2.0301      2.47284 
        2.0332      2.47257 
       2.04032      2.54155 
       2.04175       2.5603 
        2.0446       2.6263 
        2.0473      2.53232 
        2.0519      2.55955 
        2.0555      2.67944 
        2.0683      2.70375 
        2.0797      2.66044 
        2.0842      2.68308 
        2.0897       2.8062 
        2.0965       2.8115 
         2.106      2.92298 
        2.1092      3.00335 
       2.11333      2.93671 
       2.11415      2.91849 
        2.1224      2.67192 
        2.1256      2.45317 
        2.1287      2.42548 
         2.132      2.37083 
        2.1365      2.09187 
        2.1385      2.08686 
       2.14291      2.12091 
        2.1479      2.26678 
        2.1504      2.37416 
        2.1529      2.46898 
        2.1566      2.52723 
        2.1611      2.55375 
        2.1695      2.37462 
        2.1779      2.17409 
         2.184      2.15826 
        2.1902      2.15593 
       2.19578      2.29872 
       2.19611      2.30962 
        2.2007      2.78851 
        2.2025      2.88509 
       2.20377      2.78459 
        2.2042      2.73923 
       2.20845      2.24095 
        2.2093      2.14409 
        2.2166      2.01348 
       2.21775      2.13816 
       2.22113      2.51814 
        2.2212      2.52172 
       2.22138      2.51082 
       2.22526      2.14316 
       2.22544      2.13482 
        2.2325      1.93897 
        2.2338      1.92432 
        2.2385      1.89343 
       2.24201      1.97277 
       2.24222      1.98588 
       2.24445      2.19413 
        2.2453      2.26913 
       2.24677       2.1822 
        2.2512      1.91036 
        2.2558      1.95959 
        2.2608      1.89222 
        2.2653       2.1477 
        2.2685      2.24331 
       2.27023       2.4259 
        2.2708      2.48309 
       2.27455       2.3112 
        2.2874       2.1792 
         2.289      2.16108 
        2.2953      2.12803 
        2.3104      2.11948 
        2.3135      2.36968 
       2.31625      2.25225 
         2.319      2.13161 
        2.3245      1.96785 
        2.3354      1.88995 
       2.34221      1.97247 
        2.3463      2.09247 
        2.3622      2.16059 
        2.3757      2.30682 
        2.3988      2.49623 
        2.4058      2.65675 
        2.4113      2.81134 
        2.4153      2.88734 
       2.41877      2.80336 
        2.4227      2.60831 
        2.4262      2.71788 
        2.4362      2.65934 
        2.4387      2.59839 
        2.4432      2.66638 
        2.4541      2.57125 
       2.45548      2.72578 
       2.45685      2.84564 
        2.4596      3.07241 
       2.46172      2.88246 
       2.46657      2.43875 
       2.46704      2.42999 
        2.4766       2.3252 
        2.4915      2.31137 
        2.5035      2.24762 
       2.51492      2.30746 
       2.51546      2.31432 
        2.5209      2.64986 
       2.52478      3.05088 
        2.5249      3.05744 
       2.52511       3.0383 
       2.52687      2.82382 
       2.52715      2.80581 
        2.5294      2.68657 
       2.53334      2.17893 
       2.53344      2.17375 
       2.53434      2.21479 
        2.5384      2.40876 
        2.5423       2.1925 
        2.5483      1.95525 
       2.56011      1.89998 
        2.5603      1.90342 
       2.56047      1.92305 
       2.56305      2.28153 
       2.56511      2.54265 
        2.5658      2.62893 
       2.56822      2.96345 
       2.56826      2.96541 
       2.56834      2.96066 
       2.56853      2.91614 
       2.57014      2.49322 
       2.57037      2.44827 
       2.57305      2.00492 
        2.5732      1.98362 
        2.5734      1.97366 
        2.5797      1.79281 
        2.5852      1.74616 
       2.59415      1.89541 
       2.59426      1.90124 
       2.59962      2.34134 
       2.59966      2.34252 
       2.59975      2.33725 
        2.6001      2.27513 
         2.601      2.10781 
        2.6011      2.09294 
        2.6013       2.0794 
        2.6061      1.85718 
        2.6154      1.81007 
        2.6206      1.77738 
          2.63      1.77226 
         2.637      1.76044 
         2.654      2.08246 
        2.6719      1.76115 
        2.6764      1.86118 
        2.6844      1.82813 
       2.69569      1.53681 
        2.6973      1.49775 
       2.69942      1.62235 
       2.70328      1.85204 
        2.7058      1.88751 
        2.7143      1.99927 
        2.7188       1.9398 
          2.72      1.96876 
        2.7272      2.16252 
        2.7317      2.17098 
       2.73864      1.97919 
       2.74095      1.91854 
        2.7502      1.79468 
        2.7725      1.69175 
         2.785      1.63294 
        2.7917      1.69671 
        2.8118      1.92791 
        2.8199      1.97221 
       2.82781      1.91926 
         2.841      1.70752 
        2.8459      1.82955 
        2.8605      1.71949 
        2.8833       1.7518 
        2.8946      1.66216 
       2.90648      1.69967 
       2.90761      1.71148 
        2.9187        1.863 
        2.9247      1.94536 
        2.9418      1.47399 
        2.9523      1.63452 
        2.9726      1.70741 
        2.9816      1.57605 
        2.9946      1.60457 
        3.0035      1.61466 
       3.02181      1.38637 
        3.0328      1.24046 
        3.0433      1.21502 
        3.0645     0.920359 
        3.0767     0.842936 
       3.08775      0.84012 
        3.0921     0.838535 
       3.10098     0.935894 
        3.1124      1.06987 
        3.1441      1.32045 
        3.1555      1.59675 
        3.1668      1.38349 
        3.1766       1.6887 
        3.1823      1.74799 
       3.19449      1.40219 
        3.2083      1.27285 
        3.2164       1.3761 
        3.2245       1.4839 
         3.253      1.44327 
        3.2619       1.5778 
        3.2676       1.5803 
       3.27906      1.38359 
        3.3017      1.20538 
        3.3123      1.14791 
       3.32526      1.23331 
        3.3367      1.46625 
        3.3472      1.66375 
        3.3602      1.58768 
        3.3716      1.84136 
       3.37969       1.8249 
        3.3919      1.49642 
        3.4041      1.34915 
        3.4163      1.39608 
        3.4464      1.23828 
        3.4837      1.55029 
        3.4943      1.51595 
       3.51132      1.53019 
         3.517      1.53402 
        3.5354      1.71245 
        3.5452      1.79424 
         3.556      1.80338 
       3.57631      1.46707 
        3.5885      1.33058 
       3.61831      1.39948 
        3.6362       1.4541 
        3.6503      1.65116 
        3.6622      1.44112 
        3.6774       1.5152 
       3.68915       1.7059 
        3.6914       1.7435 
        3.7055      1.82245 
         3.712      1.58359 
        3.7172      1.63093 
        3.7315       1.7743 
       3.74557      1.37543 
        3.7532      1.35244 
        3.7673      1.55866 
        3.7741      1.50318 
        3.7847      1.41007 
        3.7965      1.42593 
        3.8095      1.27874 
        3.8388      1.29395 
        3.8475      1.00716 
       3.85605      1.01414 
        3.8713      1.26868 
       3.88644      0.94516 
        3.8886      0.89973 
        3.9024     0.971438 
         3.907     0.996859 
       3.91365      1.24367 
        3.9146      1.27736 
        3.9309       1.1238 
        3.9634      1.42328 
        3.9861      1.37824 
        4.0056      1.41119 
        4.0154      1.27106 
        4.0251      1.35052 
       4.05266      1.08443 
        4.0566      1.04557 
        4.0652      1.02089 
       4.08805      1.43023 
        4.0977      1.45092 
       4.10461      1.36198 
         4.153     0.773703 
       4.17354     0.905612 
        4.1876      1.13451 
        4.2061      1.58364 
        4.2126      1.62997 
        4.2364      1.28697 
        4.2548      1.34078 
        4.2722      1.29492 
        4.2841      1.48214 
        4.2982      1.50237 
        4.3166      1.70133 
       4.34254      1.34304 
        4.3523      1.32279 
         4.361      1.45717 
        4.3707      1.35492 
        4.3957      1.35513 
        4.4251      1.15431 
        4.4569      1.02544 
        4.4863      1.00867 
        4.5353     0.824516 
       4.57107      1.16924 
         4.583      1.30467 
       4.59403        1.285 
        4.6026      1.21384 
       4.62813       1.2175 
       4.62873       1.2226 
        4.6406      1.36446 
        4.6689      1.25728 
        4.6981        1.023 
        4.7079       1.0171 
       4.72243      1.11366 
        4.7544      1.12618 
        4.7777      1.23808 
       4.80884      1.22361 
         4.883      1.09685 
        4.9528      1.05587 
        4.9711     0.945794 
        5.0029     0.893301 
       5.01638     0.960699 
        5.0568     0.974142 
         5.074      1.06143 
        5.1046       1.0209 
        5.1364      1.05306 
        5.1609      1.22709 
        5.1719      1.20062 
        5.1829      1.10253 
       5.24354      1.31334 
       5.24905      1.31633 
        5.2711      1.32034 
       5.29065      1.07027 
        5.3102      1.01527 
        5.3298      1.12527 
        5.3494      1.08931 
       5.36313      1.16039 
        5.3996      1.17567 
       5.42165      1.01943 
        5.4437     0.979923 
       5.45951      1.34062 
        5.4657      1.44502 
        5.4772      1.20289 
        5.4841      1.05761 
        5.4963      1.07603 
        5.5138     0.840304 
        5.5289     0.937518 
        5.5424      1.12102 
        5.5642      1.08394 
         5.586      1.21019 
        5.6062      1.23297 
       5.63305      1.06765 
        5.6599      0.99635 
        5.7372     0.964504 
          5.85     0.927318 
          5.88     0.909225 
          5.93      0.89362 
        5.9521     0.890776 
        5.9689     0.963218 
        5.9874     0.810161 
        6.0092     0.804363 
        6.0285     0.904099 
        6.0478     0.999059 
        6.0646      1.00485 
        6.0781     0.822216 
        6.1284     0.976759 
        6.1402      1.17084 
        6.1587      1.21424 
       6.17706      1.15649 
        6.2057     0.926961 
        6.2292      1.00403 
          6.25     0.998107 
        6.2645      1.00512 
        6.3048     0.872543 
        6.3333     0.992482 
       6.36031     0.801549 
         6.382     0.732076 
        6.4055     0.724326 
         6.419     0.823049 
          6.43     0.821094 
        6.4643     0.831166 
        6.4878     0.743417 
       6.51352     0.917602 
       6.53745       1.0399 
        6.5451      1.07705 
        6.5651      1.09103 
       6.58998     0.916461 
       6.59083     0.914344 
         6.635      0.87575 
          6.65     0.861808 
        6.6692     0.846968 
        6.7179     0.707662 
         6.725     0.709382 
        6.7699      0.70532 
       6.78085     0.767004 
        6.7918     0.833497 
        6.8203     0.912108 
       6.83352     0.864824 
       6.84968     0.729196 
        6.8673     0.580946 
        6.8992     0.754652 
       6.93815       0.7091 
        6.9429      0.70309 
          6.96      0.70542 
        6.9899     0.703729 
        7.0183     0.770053 
         7.025     0.767509 
        7.0502     0.766435 
        7.0752     0.608283 
       7.08287     0.665406 
       7.10012     0.795819 
        7.1161     0.823328 
       7.14169     0.570982 
        7.1434     0.554827 
        7.1662      0.64964 
        7.1753     0.614011 
        7.1844     0.576838 
        7.2015     0.741455 
        7.2072     0.793818 
        7.2186     0.741887 
          7.23     0.684638 
        7.2436     0.625702 
        7.2663     0.760029 
           7.3     0.734372 
          7.35     0.668519 
         7.375     0.644904 
        7.4187     0.606873 
       7.44114     0.662412 
          7.47      0.71823 
        7.4824     0.746988 
           7.5     0.773423 
         7.512     0.794257 
       7.55112     0.745995 
        7.5689     0.715709 
        7.5985     0.750242 
        7.6281     0.791228 
       7.65731      0.78621 
           7.7     0.699516 
        7.7168     0.670314 
        7.7759     0.639549 
           7.8     0.598974 
        7.8101     0.577277 
       7.84002     0.684989 
          7.85     0.720509 
         7.867     0.783667 
       7.90144     0.708439 
         7.925     0.684595 
          7.96      0.64569 
        7.9898     0.606966 
        8.0258     0.726133 
        8.0274     0.727709 
        8.0922     0.741051 
       8.14395     0.636891 
       8.16465     0.597867 
        8.1814      0.56649 
        8.1878     0.554138 
           8.2     0.545812 
        8.2196      0.53707 
       8.23665     0.578942 
        8.2537     0.619329 
       8.29639     0.538186 
         8.322     0.486307 
        8.3561     0.614783 
         8.375     0.614303 
           8.4     0.614895 
          8.42     0.613601 
       8.45938     0.618312 
         8.525      0.62262 
          8.55     0.633188 
           8.6     0.643483 
         8.625     0.641092 
          8.65     0.635323 
         8.675     0.640106 
           8.7     0.642896 
          8.75     0.644891 
         8.775     0.641912 
         8.795     0.644455 
        8.8316     0.650394 
       8.86415     0.620267 
        8.8886     0.596675 
        8.9022     0.584187 
          8.91     0.582092 
          8.95     0.566007 
       8.97725      0.55808 
        8.9795     0.557098 
         9.082     0.598012 
       9.12625     0.586748 
           9.2     0.560098 
         9.264     0.534492 
       9.34895      0.59189 
        9.4339     0.645987 
       9.50695     0.637918 
          9.58     0.625508 
          9.65     0.623805 
          9.75     0.629428 
          9.85     0.637893 
       9.95078     0.634975 
        10.025      0.58525 
         10.05     0.568033 
         10.15       0.5545 
        10.235      0.55925 
         10.25       0.5638 
       10.3946     0.587805 
          10.4       0.5887 
       10.5467     0.609828 
       10.6955     0.631255 
         10.75       0.6391 
       10.9017     0.658247 
        10.926      0.66132 
            11       0.6625 
       11.1552     0.662438 
       11.3126     0.662375 
       11.4722     0.662311 
          11.5       0.6623 
       11.6622     0.660637 
       11.8268     0.658951 
          11.9       0.6582 
        12.019      0.65959 
       12.1886     0.665314 
          12.2       0.6657 
       12.3721     0.673301 
       12.5467     0.681009 
       12.7237     0.688826 
       12.9032     0.696753 
         12.95      0.69882 
            13      0.69937 
       13.1834     0.708445 
       13.3694     0.717647 
         13.46      0.72213 
       13.6499     0.730894 
         13.79      0.73736 
       13.9846     0.745077 
            14      0.74569 
       14.1975     0.756512 
       14.3978     0.767486 
       14.6009     0.778615 
         14.71      0.78459 
       14.9175       0.7976 
            15      0.80277 
       15.2116     0.812542 
       15.4262     0.822453 
       15.6439     0.832503 
        15.683      0.83431 
       15.9043     0.843182 
       16.1286      0.85218 
       16.3562     0.861304 
       16.5869     0.870557 
        16.821      0.87994 
            17      0.88712 
       17.2398     0.895927 
       17.4831     0.904858 
       17.7297     0.913915 
       17.9799       0.9231 
            18      0.92384 
       18.2539     0.934678 
       18.5115      0.94567 
       18.7726     0.956816 
       19.0375      0.96812 
       19.3061     0.979583 
       19.5784     0.991208 
       19.8547        1.003 
            20       1.0092 
//
#-------------------------------------------------------------------------------
