#ZVView-data-copy:   1-Oct-2024 00:23:35
#=======================================
#
#name:   ENDF/B-VIII.0: O-16(N,EL)O-16-L0
#X.axis: Incident Energy
#Y.axis: Cross Section
#wdata:  2
#ldata:  2033
#data...
#            X            Y
#          MeV        barns
         1e-11      54.1469 
   1.10304e-11       51.567 
   1.21669e-11      49.1112 
   1.34206e-11      46.7734 
   1.48034e-11       44.548 
   1.63287e-11      42.4298 
   1.80111e-11      40.4137 
   1.98669e-11      38.4947 
   2.19139e-11      36.6683 
   2.41719e-11        34.93 
   2.66625e-11      33.2758 
   2.94097e-11      31.7016 
     3.244e-11      30.2036 
   3.57825e-11      28.7782 
   3.94694e-11       27.422 
   4.35362e-11      26.1318 
   4.80221e-11      24.9044 
   5.29701e-11      23.7368 
    5.8428e-11      22.6263 
   6.44483e-11      21.5702 
   7.10888e-11       20.566 
   7.84136e-11      19.6112 
   8.64931e-11      18.7035 
   9.54051e-11      17.8408 
   1.05235e-10      17.0209 
   1.16078e-10       16.242 
   1.28942e-10      15.4504 
   1.43224e-10      14.7018 
   1.59096e-10      13.9933 
   1.76718e-10      13.3237 
   1.96302e-10      12.6905 
   2.18044e-10      12.0925 
   2.42208e-10      11.5274 
   2.69035e-10      10.9942 
    2.9885e-10      10.4909 
   3.31951e-10      10.0166 
   3.68737e-10      9.56946 
   4.09579e-10      9.14861 
   4.54969e-10      8.75245 
   5.05362e-10      8.38022 
   5.61366e-10      8.03045 
   6.23544e-10      7.70244 
   6.97495e-10      7.37517 
   7.80217e-10       7.0702 
    8.7275e-10      6.78644 
   9.76257e-10      6.52283 
    1.09204e-9      6.27837 
    1.23017e-9      6.03848 
    1.38571e-9       5.8181 
    1.56099e-9      5.61595 
    1.77075e-9      5.42075 
    2.00871e-9      5.24369 
     2.2946e-9      5.07518 
    2.62131e-9       4.9241 
    3.01551e-9      4.78252 
    3.49329e-9      4.65147 
    4.07533e-9       4.5316 
    4.78787e-9      4.42332 
    5.70408e-9      4.32301 
    6.89182e-9      4.23218 
    8.44395e-9      4.15175 
    1.05656e-8      4.07992 
     1.3596e-8      4.01618 
    1.81197e-8      3.96069 
    2.52419e-8      3.91363 
       2.53e-8      3.91335 
    3.74525e-8      3.87459 
    6.11549e-8      3.84332 
    1.16661e-7      3.81981 
    3.06721e-7      3.80376 
     2.1202e-6      3.79533 
      0.102814      3.58115 
       0.17161      3.46093 
      0.208585      3.41134 
      0.245055      3.37935 
          0.26      3.37456 
      0.281975      3.38604 
           0.3      3.41515 
          0.32      3.48922 
          0.34      3.64273 
          0.36      3.96523 
          0.38      4.70501 
          0.39      5.43796 
         0.395      5.97633 
           0.4      6.68575 
         0.405      7.62576 
          0.41      8.86667 
         0.415      10.4667 
          0.42      12.4044 
         0.425      14.4456 
          0.43      16.0351 
         0.434      16.5208 
      0.435125      16.4839 
          0.44       15.639 
         0.445      13.9143 
          0.45        11.98 
         0.455      10.2379 
          0.46      8.81658 
         0.465       7.7037 
          0.47      6.84289 
         0.475      6.17559 
          0.48      5.65389 
           0.5      4.41782 
          0.52       3.8313 
          0.54       3.5036 
          0.56      3.29688 
          0.58      3.15413 
           0.6       3.0486 
      0.624374      2.95199 
      0.644515       2.8878 
      0.669311      2.82385 
           0.7      2.76056 
      0.730047      2.71603 
          0.76      2.68597 
          0.78      2.67746 
           0.8      2.68074 
          0.82      2.70035 
         0.835      2.73117 
         0.845      2.76112 
          0.85      2.77839 
          0.86      2.82438 
          0.87      2.88507 
          0.88       2.9648 
          0.89      3.06953 
           0.9      3.20738 
          0.91      3.38955 
          0.92      3.63134 
          0.93      3.95309 
          0.94      4.38017 
          0.95      4.93936 
          0.96      5.64602 
          0.98      7.30887 
          0.99      7.93373 
             1      8.12579 
          1.01      7.83375 
          1.02      7.21435 
          1.03      6.48393 
          1.04      5.78979 
          1.05      5.19329 
          1.06      4.70378 
          1.07      4.30911 
          1.08      3.99181 
          1.09       3.7355 
           1.1      3.52673 
          1.11      3.35504 
          1.12      3.21245 
          1.13      3.09297 
          1.14      2.99212 
          1.15      2.90654 
          1.16      2.83378 
          1.17      2.77209 
          1.18      2.72034 
          1.19      2.67799 
           1.2      2.64509 
          1.21      2.62249 
          1.22      2.61212 
          1.23      2.61762 
          1.24      2.64561 
          1.25      2.70805 
         1.255      2.75859 
          1.26      2.82757 
         1.265      2.92127 
          1.27      3.04865 
         1.275       3.2225 
          1.28      3.46082 
         1.285      3.78776 
          1.29      4.23175 
         1.295      4.81399 
         1.305      6.21237 
         1.307      6.43811 
         1.309      6.60572 
         1.311       6.7006 
         1.313      6.71468 
         1.315      6.64839 
         1.317       6.5104 
         1.319      6.31527 
         1.321      6.08022 
        1.3275      5.23675 
          1.33      4.91808 
         1.335       4.3785 
          1.34      3.95092 
         1.345      3.61938 
          1.35      3.36261 
          1.36       3.0026 
          1.37      2.76983 
          1.38      2.61023 
          1.39      2.49481 
           1.4      2.40742 
          1.41      2.33864 
          1.42      2.28271 
          1.43      2.23595 
          1.44      2.19594 
          1.46      2.13003 
          1.48      2.07672 
          1.51      2.01132 
          1.55      1.94069 
          1.59      1.88389 
         1.613      1.86379 
         1.616      1.86285 
         1.625      1.87046 
         1.628      1.87787 
         1.632      1.89852 
         1.634      1.91639 
         1.636      1.94323 
         1.638      1.98497 
          1.64      2.05315 
         1.641      2.10419 
         1.642      2.17371 
         1.643      2.27101 
         1.644      2.41213 
       1.64475      2.56918 
         1.645      2.62585 
       1.64575      2.87559 
         1.646       2.9645 
       1.64637      3.14479 
        1.6465      3.21061 
       1.64688      3.44944 
         1.647      3.53644 
       1.64731      3.80036 
        1.6475      3.97094 
       1.64775      4.25242 
       1.64794      4.47293 
       1.64806      4.64195 
       1.64844      5.22137 
       1.64856      5.44136 
       1.64887      6.05575 
         1.649      6.31096 
        1.6495      7.43294 
       1.64994      8.32514 
          1.65      8.42909 
       1.65013      8.57498 
       1.65044      8.85013 
        1.6505      8.87225 
       1.65059      8.84457 
       1.65094       8.5828 
       1.65103      8.46466 
       1.65119      8.17708 
        1.6515      7.55464 
         1.652      6.43364 
       1.65237      5.67198 
        1.6525      5.43227 
       1.65269      5.12254 
       1.65294      4.72896 
       1.65306      4.55501 
       1.65338      4.17834 
        1.6535      4.03714 
       1.65369       3.8608 
       1.65394      3.63969 
       1.65406       3.5469 
       1.65494      3.02951 
       1.65506      2.97064 
       1.65575       2.7274 
         1.656      2.64339 
       1.65675      2.47355 
         1.657      2.42034 
         1.658      2.27215 
         1.659      2.16911 
          1.66      2.09468 
         1.661      2.03916 
         1.662       1.9966 
         1.663      1.96321 
         1.664      1.93654 
         1.666      1.89673 
         1.668      1.86868 
         1.671      1.83948 
         1.675      1.81381 
         1.681      1.78935 
         1.686      1.77788 
         1.687      1.77925 
       1.68791      1.79077 
         1.688      1.79881 
       1.68809      1.81821 
       1.68881      2.01917 
       1.68889      2.04512 
       1.68894      2.07087 
       1.68897      2.09939 
       1.68899      2.13073 
       1.68901      2.16233 
       1.68903      2.20802 
       1.68905      2.26707 
       1.68906      2.32208 
       1.68908      2.38802 
        1.6891      2.46689 
       1.68911      2.56067 
       1.68912      2.67173 
       1.68914       2.8022 
       1.68915      2.95436 
       1.68917      3.12943 
       1.68919      3.32807 
        1.6892       3.5491 
       1.68922      3.87369 
       1.68927      4.65081 
       1.68928      4.88799 
        1.6893      5.09412 
        1.6893      5.20806 
       1.68931      5.29952 
       1.68932      5.36586 
       1.68933      5.40512 
       1.68935      5.41611 
       1.68936      5.39848 
       1.68937      5.35276 
       1.68938      5.28033 
       1.68939      5.18329 
        1.6894      4.99787 
       1.68941      4.77451 
       1.68943      4.52611 
       1.68947      3.83248 
       1.68948      3.58885 
        1.6895      3.36485 
       1.68951      3.16358 
       1.68953      2.98681 
       1.68955      2.83421 
       1.68956      2.70464 
       1.68957      2.59586 
       1.68959      2.50565 
       1.68961      2.42577 
       1.68963      2.35269 
       1.68964      2.29566 
       1.68966      2.25073 
       1.68969      2.20393 
       1.68973      2.15025 
        1.6898      2.06426 
        1.6899      1.95916 
       1.68995      1.91345 
          1.69      1.87869 
       1.69005      1.85843 
       1.69009      1.84807 
       1.69025      1.83792 
         1.692       1.7659 
         1.696      1.75267 
       1.74629      1.67327 
         1.774       1.6314 
         1.796      1.58845 
         1.813      1.55135 
         1.814      1.55034 
         1.816      1.55093 
         1.818      1.55646 
          1.82       1.5714 
         1.822      1.60471 
         1.823       1.6338 
         1.824      1.67672 
         1.825      1.74036 
         1.826      1.83577 
       1.82675      1.94226 
         1.827      1.98058 
       1.82775      2.14366 
         1.828      2.20234 
        1.8285       2.3672 
         1.829      2.54045 
        1.8295       2.7837 
          1.83      3.03667 
       1.83037      3.27768 
        1.8315      4.02234 
       1.83187      4.27304 
         1.832      4.34843 
        1.8325      4.54776 
         1.833      4.72904 
       1.83323      4.75429 
        1.8333      4.75488 
       1.83383      4.68621 
       1.83399       4.6576 
       1.83415      4.60576 
         1.835      4.28395 
         1.836      3.84414 
         1.837      3.45388 
         1.838      3.14195 
         1.839      2.90078 
          1.84        2.715 
         1.841      2.57064 
         1.842        2.457 
         1.843      2.36628 
         1.844      2.29285 
         1.845      2.23268 
         1.846      2.18282 
        1.8475      2.12335 
         1.849      2.07613 
         1.851      2.02881 
         1.853      1.99388 
         1.856      1.95799 
         1.859      1.93646 
         1.862      1.92599 
         1.864      1.92432 
         1.867      1.92979 
          1.87      1.94358 
         1.873      1.96853 
         1.876      2.00422 
         1.878      2.03624 
          1.88       2.0757 
         1.882      2.12379 
         1.884      2.18189 
         1.886      2.25147 
         1.888      2.33392 
          1.89      2.43021 
         1.892      2.54037 
         1.894      2.66258 
         1.898      2.92064 
           1.9      3.03565 
         1.902      3.12263 
         1.904      3.16867 
         1.906      3.16684 
         1.908      3.11884 
          1.91      3.03398 
         1.912      2.92539 
         1.917      2.62845 
         1.919      2.51871 
          1.92      2.46636 
         1.922      2.37207 
         1.924      2.28856 
         1.926      2.21514 
         1.928       2.1508 
          1.93      2.09446 
         1.933      2.02322 
         1.936      1.96325 
          1.94      1.89906 
         1.945      1.83677 
          1.95      1.78808 
         1.955      1.74946 
          1.96      1.71794 
         1.965      1.69166 
         1.975       1.6499 
         1.985      1.61761 
             2      1.57963 
          2.02      1.53978 
       2.05439      1.48472 
          2.12      1.38649 
          2.15      1.33468 
          2.16      1.31604 
          2.18      1.27257 
           2.2      1.21978 
          2.21      1.18852 
          2.22        1.153 
          2.23      1.11226 
          2.24      1.06511 
          2.25      1.01013 
          2.26     0.945689 
          2.27      0.87002 
          2.28       0.7815 
          2.29     0.679205 
           2.3     0.563937 
          2.32     0.315849 
          2.33     0.206898 
         2.335     0.163709 
          2.34     0.131016 
         2.345     0.110502 
          2.35     0.103172 
         2.355     0.109184 
          2.36     0.127833 
         2.365      0.15766 
          2.37     0.196698 
          2.38     0.293322 
        2.3925        0.427 
           2.4     0.506003 
          2.41     0.602111 
          2.42     0.685988 
          2.43     0.757279 
          2.44     0.816956 
          2.45     0.866503 
          2.46     0.907476 
          2.47     0.941312 
          2.48     0.969252 
          2.49     0.992339 
           2.5      1.01143 
         2.515      1.03376 
          2.52      1.04028 
          2.54      1.05998 
          2.56      1.07331 
          2.59      1.08529 
          2.62      1.09111 
          2.66      1.09343 
          2.76      1.09103 
          2.82      1.09446 
          2.85      1.10186 
          2.86      1.10541 
          2.88      1.12705 
         2.883       1.1395 
        2.8845      1.15197 
         2.885       1.1576 
         2.886      1.17571 
       2.88687      1.20616 
         2.887      1.21287 
       2.88725      1.23611 
       2.88781      1.29475 
       2.88791      1.30866 
       2.88797      1.32438 
       2.88803      1.34577 
        2.8881      1.38494 
        2.8882      1.44828 
        2.8886      1.71763 
       2.88867      1.77477 
       2.88873      1.82298 
       2.88876      1.86959 
        2.8888      1.92904 
       2.88884       2.0042 
       2.88888       2.0962 
        2.8889      2.16642 
       2.88895      2.32289 
       2.88901      2.52292 
       2.88904       2.5923 
       2.88906      2.64852 
       2.88909      2.68664 
       2.88911      2.70063 
       2.88911      2.70219 
       2.88913      2.69695 
       2.88915      2.67623 
       2.88917      2.63971 
       2.88919      2.58783 
       2.88921       2.5216 
       2.88923       2.4427 
       2.88925      2.32148 
       2.88929      2.11762 
       2.88934      1.83775 
       2.88936      1.70649 
       2.88939      1.58609 
       2.88941      1.50426 
       2.88943      1.43023 
       2.88944      1.36407 
       2.88946      1.30567 
       2.88948      1.25465 
        2.8895      1.21057 
       2.88952      1.17276 
       2.88954       1.1407 
       2.88956      1.10574 
       2.88959      1.07838 
       2.88961      1.05726 
       2.88964      1.04115 
       2.88967      1.02396 
       2.88972      1.00941 
        2.8898      0.99589 
        2.8899     0.982855 
          2.89     0.974585 
       2.89006     0.972921 
       2.89019     0.975399 
         2.892      1.04587 
         2.894      1.07143 
         2.896       1.0832 
           2.9      1.09511 
         2.905      1.10318 
         2.955       1.1505 
         2.975      1.17561 
          2.99      1.20101 
         2.995       1.2126 
             3      1.22989 
        3.0025      1.24652 
        3.0035      1.25848 
         3.004      1.26628 
       3.00475      1.28665 
         3.005      1.29568 
       3.00563      1.34433 
       3.00591       1.3691 
         3.006      1.38336 
       3.00609      1.40495 
       3.00631       1.4693 
       3.00641      1.50066 
       3.00647      1.52667 
       3.00653      1.55688 
       3.00658      1.59135 
       3.00662      1.63483 
       3.00668      1.68945 
       3.00671      1.73944 
       3.00675      1.79889 
       3.00679      1.86962 
       3.00682      1.95334 
       3.00686      2.05125 
        3.0069      2.16302 
       3.00695      2.32834 
         3.007      2.49565 
       3.00703       2.5711 
       3.00705      2.63493 
       3.00708      2.68242 
       3.00709      2.70464 
       3.00711      2.71367 
       3.00713      2.70841 
       3.00715      2.68829 
       3.00717      2.65329 
       3.00719      2.60406 
        3.0072       2.5639 
       3.00723      2.46808 
       3.00725       2.3559 
       3.00729      2.16943 
       3.00734      1.91726 
       3.00736      1.80061 
       3.00739      1.69472 
       3.00741      1.60142 
       3.00743      1.54016 
       3.00745      1.48643 
       3.00747      1.43985 
       3.00749      1.40005 
       3.00751      1.36386 
       3.00753      1.32999 
       3.00755      1.30324 
       3.00758      1.28224 
       3.00761      1.26096 
       3.00766      1.23836 
       3.00775      1.20716 
       3.00791      1.16471 
         3.008      1.14724 
       3.00807      1.14104 
       3.00814      1.13959 
       3.01006      1.18474 
          3.02      1.23792 
         3.045      1.30973 
          3.06      1.35903 
          3.07      1.39685 
          3.08      1.43904 
          3.09      1.48613 
           3.1      1.53861 
          3.11      1.59699 
          3.12      1.66173 
          3.13      1.73323 
          3.14      1.81182 
          3.15      1.89767 
          3.16      1.99075 
          3.17      2.09084 
          3.18      2.19762 
          3.19      2.31134 
         3.201      2.45413 
        3.2045      2.52014 
         3.206      2.56326 
         3.207       2.6065 
         3.208      2.67583 
       3.20875      2.77023 
         3.209      2.80683 
       3.20937      2.89214 
        3.2095      2.92734 
       3.20975      3.02014 
       3.20994      3.09971 
       3.21006      3.16941 
       3.21031      3.34453 
       3.21044      3.44383 
       3.21053      3.53678 
       3.21062      3.64897 
       3.21088      3.98287 
         3.211      4.16831 
       3.21112      4.38228 
       3.21137      4.83445 
       3.21144       4.9302 
        3.2115      5.00346 
       3.21156      5.04986 
       3.21163      5.07377 
       3.21181      5.09147 
       3.21191      5.08043 
       3.21197      5.05081 
       3.21203      4.99328 
       3.21209      4.90783 
       3.21219      4.74636 
       3.21244      4.28281 
       3.21256      4.07754 
       3.21275      3.80936 
       3.21291      3.59895 
         3.213      3.48958 
       3.21309       3.4019 
       3.21331      3.23934 
       3.21344      3.15515 
       3.21356       3.0872 
       3.21381      2.98882 
         3.214      2.92724 
       3.21419      2.88842 
       3.21475      2.79616 
         3.215       2.7594 
        3.2155      2.72494 
         3.216      2.69643 
         3.218      2.66258 
       3.22025      2.66666 
          3.23      2.75427 
         3.245      2.90134 
         3.255      2.98907 
          3.26      3.03019 
          3.27      3.09995 
          3.28      3.15631 
          3.29      3.19916 
           3.3      3.22911 
          3.31       3.2473 
          3.32      3.25525 
         3.335      3.24977 
          3.35      3.23496 
         3.426      3.10445 
         3.432      3.09703 
         3.435      3.10117 
         3.436       3.1079 
       3.43788       3.2411 
         3.438      3.26632 
        3.4381      3.30812 
       3.43817      3.35622 
       3.43825      3.42244 
       3.43832      3.51292 
       3.43837      3.59138 
       3.43843      3.68819 
       3.43847      3.80652 
       3.43852      3.94943 
       3.43858      4.11939 
       3.43863      4.31581 
       3.43875      4.86112 
        3.4388      5.05861 
       3.43884      5.18422 
       3.43887       5.2848 
       3.43891      5.35609 
       3.43895      5.39426 
       3.43898      5.39991 
       3.43901      5.37809 
       3.43905      5.32194 
       3.43909      5.23692 
       3.43915      5.05341 
       3.43928      4.65614 
       3.43935      4.45014 
        3.4394      4.33358 
       3.43948       4.1909 
       3.43955      4.08259 
       3.43963       4.0019 
        3.4397      3.94331 
        3.4398      3.89194 
        3.4399      3.86582 
       3.43995      3.86171 
       3.44006      3.87376 
       3.44025      3.93447 
       3.44041      4.00217 
        3.4405      4.06649 
       3.44059      4.16053 
       3.44075       4.3568 
       3.44094      4.61566 
         3.441      4.71472 
       3.44112      4.94152 
       3.44131      5.31014 
       3.44141      5.46962 
       3.44147      5.53933 
       3.44152       5.5625 
       3.44153      5.56428 
       3.44159      5.54446 
       3.44169      5.45978 
       3.44187      5.23213 
         3.442      5.05188 
       3.44213       4.8294 
       3.44237      4.33895 
       3.44247      4.17479 
       3.44256      4.04345 
       3.44263      3.97311 
       3.44281      3.79488 
       3.44294      3.68801 
         3.443      3.64266 
       3.44313      3.57276 
       3.44338      3.46746 
        3.4435      3.42297 
       3.44375      3.36172 
         3.444      3.31254 
        3.4445      3.25011 
         3.445      3.21171 
         3.446      3.16798 
         3.447      3.14443 
        3.4495      3.11689 
          3.46      3.08808 
          3.48      3.07595 
           3.5      3.07546 
          3.59      3.10968 
           3.6      3.11131 
        3.6415      3.09582 
         3.642      3.09782 
         3.705      3.02102 
          3.71      3.01748 
          3.72      3.02205 
          3.73      3.05415 
          3.74      3.15802 
         3.749       3.4341 
         3.751      3.54962 
         3.753      3.70088 
         3.755      3.89857 
         3.757      4.15578 
         3.759      4.48368 
         3.761      4.88078 
         3.763       5.3111 
         3.765       5.6804 
         3.767      5.85265 
         3.769      5.74319 
         3.771      5.40121 
         3.774      4.74487 
         3.775      4.53141 
         3.777      4.16655 
         3.779      3.87427 
         3.781      3.64546 
         3.783      3.46694 
         3.785      3.32667 
         3.787      3.21517 
         3.789      3.12526 
         3.791      3.05171 
         3.793      2.99064 
         3.796      2.91712 
         3.799      2.85754 
          3.81      2.71363 
          3.82      2.63095 
          3.83      2.56859 
         3.845      2.49498 
          3.86      2.43533 
          3.87      2.39792 
          3.89      2.33714 
          3.91       2.2882 
         3.955      2.20828 
         3.975      2.17281 
         3.985      2.14638 
          3.99      2.13093 
             4      2.08481 
          4.01      2.01355 
          4.02      1.90472 
          4.03      1.74982 
          4.04      1.56053 
          4.05      1.37963 
          4.06      1.25315 
          4.07      1.18889 
          4.08      1.16308 
         4.095      1.14728 
         4.105      1.14072 
          4.11      1.13849 
          4.12      1.14939 
          4.13      1.19794 
          4.14      1.31446 
          4.15      1.51826 
          4.16      1.77674 
          4.17      1.99708 
          4.18      2.10444 
          4.19      2.10043 
           4.2      2.02729 
          4.21      1.92233 
         4.235      1.63386 
          4.24      1.57753 
          4.25       1.4723 
          4.26      1.38177 
          4.27      1.32404 
         4.275       1.3199 
          4.28      1.34471 
         4.285      1.41268 
          4.29      1.54074 
         4.295      1.74115 
           4.3      2.00739 
         4.305      2.30383 
          4.31      2.57747 
         4.315      2.78548 
          4.32        2.911 
         4.325      2.95965 
          4.33      2.94879 
         4.335      2.89825 
          4.34      2.82491 
         4.355      2.57176 
          4.36      2.48924 
          4.37      2.34473 
          4.38      2.22229 
          4.39      2.11938 
           4.4      2.03296 
          4.41      1.96068 
          4.42      1.90126 
          4.43      1.85487 
        4.4375      1.83039 
         4.451      1.80306 
         4.453      1.79388 
         4.455      1.77545 
         4.456      1.76007 
         4.457      1.73831 
         4.458      1.70822 
         4.459      1.66778 
          4.46      1.61554 
         4.461      1.55164 
         4.463      1.40426 
         4.464      1.33495 
         4.465      1.27837 
         4.466      1.23854 
         4.467      1.21545 
         4.468      1.20629 
         4.469      1.20722 
          4.47      1.21466 
         4.476      1.28617 
         4.479      1.31193 
         4.482      1.32907 
         4.486      1.34189 
          4.49      1.34667 
         4.495      1.34497 
           4.5      1.33727 
        4.5075      1.31758 
        4.5155      1.29739 
         4.516      1.29732 
        4.5175      1.30115 
        4.5185      1.30829 
         4.519      1.31349 
          4.52      1.33162 
         4.521      1.36397 
       4.52175      1.40501 
         4.522       1.4211 
       4.52275      1.49375 
         4.523      1.52221 
       4.52325      1.56253 
       4.52388      1.67331 
       4.52406      1.71537 
        4.5245      1.84186 
       4.52488      1.95376 
         4.525      1.99538 
       4.52525      2.09388 
         4.526      2.40392 
       4.52681      2.70171 
       4.52694      2.74111 
       4.52706      2.76735 
       4.52725      2.78458 
       4.52787      2.81695 
         4.528      2.81376 
       4.52819      2.78684 
         4.529      2.61768 
          4.53      2.36329 
       4.53075      2.19977 
         4.531      2.14852 
       4.53175      2.02546 
         4.532      1.98732 
         4.533      1.86889 
         4.534      1.78086 
         4.535      1.71401 
         4.536      1.66201 
         4.537      1.62064 
         4.538      1.58704 
        4.5395      1.54735 
         4.541      1.51708 
         4.542       1.4987 
         4.544       1.4702 
         4.547      1.43775 
          4.55      1.41304 
         4.555      1.38188 
          4.56      1.35805 
         4.565      1.33865 
         4.575      1.30846 
          4.58      1.29763 
         4.585      1.29301 
       4.58725      1.29682 
        4.5885      1.30349 
        4.5895      1.31375 
          4.59      1.32096 
         4.591      1.34724 
       4.59188      1.39504 
       4.59206      1.41269 
        4.5925      1.47642 
       4.59288      1.53424 
         4.593      1.55871 
       4.59315      1.59952 
        4.5933      1.65392 
        4.5934       1.6981 
        4.5935      1.74987 
        4.5936      1.81083 
        4.5937      1.88297 
        4.5938      1.96873 
       4.59387      2.04369 
       4.59395      2.12921 
       4.59403      2.22671 
        4.5941      2.33747 
       4.59417      2.46255 
       4.59425      2.60231 
        4.5943      2.70335 
        4.5944      2.92131 
       4.59455      3.26401 
       4.59462      3.42306 
       4.59468      3.51637 
       4.59473      3.59494 
       4.59478      3.65512 
       4.59482      3.69384 
       4.59487        3.709 
       4.59492      3.69966 
       4.59497       3.6662 
       4.59503      3.61027 
       4.59508      3.53457 
       4.59515      3.39171 
       4.59525      3.16715 
        4.5954      2.81466 
       4.59548      2.64962 
       4.59555      2.49817 
       4.59562      2.36193 
        4.5957      2.24106 
       4.59578       2.1347 
       4.59585      2.04163 
       4.59592      1.96035 
         4.596      1.88941 
        4.5961      1.80854 
        4.5962      1.74076 
        4.5963      1.68368 
        4.5964      1.63534 
       4.59655      1.57585 
        4.5967       1.5286 
       4.59685      1.49099 
         4.597      1.46203 
       4.59719      1.43655 
       4.59788      1.36065 
         4.598       1.3498 
       4.59825      1.33783 
           4.6      1.28091 
         4.602       1.2585 
         4.604      1.24777 
         4.608      1.23699 
         4.613      1.23228 
         4.614      1.23221 
        4.6185      1.23939 
          4.62      1.24525 
         4.622      1.25907 
         4.624      1.28372 
         4.626      1.32816 
         4.627       1.3624 
        4.6275      1.38373 
        4.6285      1.43494 
          4.63      1.52104 
        4.6305      1.54301 
       4.63106      1.55542 
       4.63112      1.55563 
        4.6315      1.55339 
         4.632      1.53723 
        4.6325      1.50826 
         4.633      1.47067 
       4.63425      1.36914 
         4.635       1.3172 
       4.63575      1.27598 
        4.6365      1.24389 
         4.637      1.22697 
         4.638      1.20089 
          4.64      1.16836 
         4.645      1.13298 
          4.65      1.11639 
          4.66      1.09394 
          4.72     0.979836 
          4.74     0.944815 
          4.75     0.929853 
          4.76     0.918733 
          4.77     0.914891 
         4.775     0.917593 
          4.78     0.925046 
         4.785     0.939105 
          4.79     0.962366 
         4.795     0.998362 
           4.8      1.05169 
         4.805      1.12778 
          4.81      1.23178 
         4.815      1.36568 
       4.82125      1.56395 
         4.825       1.6857 
          4.83      1.82274 
         4.835      1.90647 
          4.84      1.92649 
         4.845      1.89275 
          4.85      1.82511 
        4.8625      1.61564 
         4.865      1.57486 
          4.87      1.50009 
         4.875      1.43295 
          4.88       1.3731 
         4.885      1.31977 
          4.89       1.2721 
         4.895      1.22926 
        4.9025      1.17279 
          4.91      1.12271 
          4.92      1.06475 
          4.93      1.01385 
          4.94     0.968203 
          4.95     0.926724 
          4.96     0.888946 
          4.97     0.855076 
          4.98     0.826158 
          4.99     0.804384 
             5     0.793532 
          5.01     0.799396 
          5.02     0.829716 
          5.03     0.892604 
          5.04      0.99236 
          5.05      1.12368 
        5.0625      1.30525 
          5.07      1.41124 
         5.085      1.60594 
          5.09      1.67237 
           5.1      1.86778 
         5.103      1.95804 
         5.105      2.03244 
         5.107      2.12138 
         5.109      2.22796 
         5.111      2.35529 
         5.113      2.50573 
         5.115      2.67917 
         5.119      3.06426 
         5.121      3.23595 
         5.123      3.35142 
         5.125      3.38065 
         5.127      3.31343 
         5.129      3.16585 
         5.131      2.97075 
         5.133       2.7614 
         5.135       2.5612 
         5.137      2.38219 
         5.139      2.22811 
         5.141      2.09812 
         5.143       1.9894 
         5.145      1.89859 
         5.147      1.82258 
          5.15      1.73055 
          5.16      1.53881 
          5.17      1.43502 
          5.18      1.36875 
          5.19      1.32096 
           5.2      1.28348 
          5.21      1.25237 
         5.225      1.21338 
          5.23      1.20127 
          5.24      1.17042 
          5.25      1.16264 
          5.27      1.12671 
         5.302      1.07647 
        5.3035      1.07878 
       5.30425       1.0836 
       5.30475       1.0897 
         5.305      1.09444 
       5.30562      1.12135 
       5.30587      1.13543 
       5.30597      1.14564 
       5.30606      1.16155 
       5.30619      1.19057 
       5.30675      1.34352 
       5.30688      1.38327 
       5.30694      1.40853 
         5.307      1.43962 
       5.30706      1.47724 
       5.30713       1.5207 
       5.30725      1.61837 
       5.30775      2.02882 
       5.30784      2.09622 
       5.30791      2.12965 
       5.30795      2.14469 
         5.308      2.14902 
       5.30805      2.14192 
       5.30809       2.1241 
       5.30816      2.08698 
       5.30825      2.01406 
       5.30878      1.54747 
       5.30888      1.47098 
       5.30894      1.42625 
         5.309      1.38906 
       5.30906      1.36028 
       5.30912      1.33904 
       5.30922      1.31656 
       5.30975      1.22483 
       5.30994      1.19601 
       5.31006      1.18223 
       5.31025      1.16972 
         5.311      1.13289 
         5.312       1.1092 
         5.313      1.09612 
         5.314      1.08772 
         5.316      1.07701 
          5.32      1.06429 
          5.34      1.02282 
          5.35     0.995614 
         5.355     0.975479 
        5.3615     0.940291 
       5.36263     0.938049 
       5.36275     0.938028 
         5.363     0.938452 
       5.36394      0.94719 
       5.36431     0.955152 
       5.36462     0.965283 
         5.365     0.982756 
       5.36538      1.00903 
        5.3655      1.02002 
       5.36575       1.0477 
       5.36594      1.07196 
       5.36613      1.10246 
       5.36637      1.15098 
       5.36656      1.19501 
       5.36681      1.26648 
         5.367      1.32698 
       5.36719      1.39773 
        5.3675       1.5264 
       5.36788      1.69253 
         5.368      1.74485 
       5.36825      1.83658 
       5.36844       1.8958 
       5.36856      1.92455 
       5.36875      1.95144 
       5.36894      1.96772 
         5.369      1.96948 
       5.36912      1.96591 
       5.36938      1.94314 
        5.3695      1.92706 
       5.36975      1.88288 
        5.3705      1.72811 
         5.371      1.63248 
        5.3715      1.55167 
         5.372      1.48528 
        5.3725      1.43106 
         5.373      1.38662 
        5.3735      1.34989 
       5.37425      1.30588 
       5.37475      1.28205 
         5.375      1.27213 
          5.38      1.15721 
         5.385      1.11216 
          5.39      1.08798 
         5.395      1.07251 
           5.4      1.06156 
          5.41      1.04675 
          5.42       1.0372 
         5.435      1.02891 
          5.45      1.02524 
         5.465      1.02695 
          5.48      1.03345 
          5.49       1.0415 
           5.5      1.05294 
          5.51      1.06844 
          5.52      1.08881 
          5.53       1.1151 
          5.54      1.14857 
          5.55      1.19075 
          5.56      1.24339 
          5.57       1.3084 
          5.58      1.38756 
          5.59      1.48194 
         5.602      1.61373 
         5.616      1.77725 
         5.622      1.83854 
         5.626      1.87105 
          5.63      1.89358 
         5.634      1.90362 
         5.638      1.89972 
         5.642      1.88252 
         5.654      1.79324 
         5.659      1.76717 
         5.662      1.76162 
         5.664        1.765 
         5.666      1.77667 
         5.668      1.80181 
          5.67      1.85236 
       5.67175      1.94315 
         5.672      1.96023 
        5.6725      2.02022 
       5.67387      2.19866 
       5.67406      2.23689 
       5.67438      2.32891 
       5.67581       2.7737 
       5.67594      2.80343 
       5.67606       2.8176 
       5.67613      2.81839 
        5.6765      2.79193 
       5.67781      2.68021 
       5.67794      2.66295 
       5.67806      2.63418 
       5.67825      2.57135 
       5.67981      1.98519 
       5.67994       1.9443 
       5.68006      1.91388 
       5.68025      1.88614 
       5.68188      1.70718 
       5.68213      1.68908 
         5.684      1.62482 
         5.686      1.59653 
         5.688      1.58241 
         5.692      1.56689 
         5.705      1.52681 
          5.71      1.50993 
          5.75      1.34501 
          5.77      1.26926 
         5.785      1.21995 
           5.8      1.17633 
         5.815      1.13974 
          5.83      1.10915 
          5.84       1.0934 
          5.85      1.08236 
          5.86       1.0782 
         5.865         1.08 
          5.87      1.08563 
         5.875      1.09661 
          5.88       1.1154 
         5.885      1.14597 
          5.89      1.19504 
         5.895      1.27417 
           5.9      1.40316 
         5.905      1.61205 
          5.91      1.92323 
         5.915      2.25758 
         5.917      2.33695 
         5.919      2.35362 
       5.92088      2.30716 
       5.92125      2.28907 
         5.925      2.05882 
          5.93       1.7015 
         5.935      1.42964 
          5.94       1.2474 
         5.945      1.12439 
          5.95      1.03682 
         5.955      0.96996 
          5.96     0.914904 
         5.966     0.856665 
         5.977     0.757915 
         5.979     0.742754 
          5.98     0.735915 
         5.982     0.727062 
         5.984      0.72814 
         5.986     0.748245 
       5.98775     0.794855 
         5.988     0.803182 
         5.989     0.857691 
       5.98987     0.907315 
       5.99013     0.926178 
        5.9915        1.056 
         5.992      1.10494 
         5.993      1.22629 
         5.994      1.34833 
       5.99575      1.53705 
         5.996      1.56093 
         5.997      1.61542 
         5.998      1.66387 
       5.99825      1.66618 
             6      1.66101 
         6.002      1.60205 
         6.006      1.45302 
         6.008      1.38794 
          6.01      1.33219 
         6.012      1.28483 
         6.014      1.24451 
         6.016      1.20995 
         6.018      1.18006 
         6.021      1.14242 
         6.024       1.1116 
         6.026      1.09237 
          6.03      1.06084 
         6.034      1.03448 
          6.04      1.00191 
         6.046     0.975659 
         6.052     0.955337 
         6.057     0.945175 
         6.058      0.94414 
          6.06     0.944458 
         6.062     0.948735 
         6.064     0.959739 
         6.066     0.983194 
        6.0675      1.01863 
         6.068      1.03231 
         6.069      1.08412 
          6.07      1.13956 
       6.07037      1.17151 
       6.07075      1.21081 
       6.07113       1.2575 
        6.0715      1.31339 
       6.07188      1.38109 
       6.07212      1.43365 
       6.07237      1.49278 
       6.07263      1.55953 
       6.07288      1.63412 
       6.07312      1.71696 
        6.0735      1.85556 
       6.07438      2.21409 
        6.0745      2.26146 
       6.07475      2.34363 
       6.07494      2.39548 
       6.07513      2.42944 
       6.07538      2.45166 
       6.07544      2.45338 
       6.07556      2.44891 
       6.07575      2.42515 
       6.07594      2.39015 
       6.07613      2.33978 
       6.07638      2.25518 
       6.07662      2.16057 
       6.07725      1.90858 
        6.0775      1.81313 
       6.07788      1.68461 
       6.07812      1.60847 
       6.07837      1.54027 
       6.07863      1.47935 
         6.079      1.40055 
       6.07937      1.33547 
       6.07963       1.2981 
          6.08      1.25005 
       6.08038      1.21043 
       6.08075      1.17747 
         6.081      1.15843 
        6.0815      1.12719 
         6.082      1.10376 
        6.0835      1.06691 
         6.084      1.05646 
       6.08425      1.05544 
         6.086      1.05848 
         6.088       1.0913 
         6.091      1.16266 
         6.092      1.18524 
         6.094      1.21329 
         6.096       1.2187 
         6.098      1.20616 
           6.1      1.18354 
         6.105      1.11854 
         6.108      1.08423 
          6.11      1.06464 
         6.114      1.03208 
         6.118      1.00661 
         6.122     0.986447 
         6.128     0.963229 
         6.135     0.943362 
          6.14     0.932411 
          6.15      0.91578 
         6.165      0.89857 
          6.19     0.879095 
          6.22     0.862657 
         6.245     0.854866 
         6.255     0.853843 
        6.2725     0.856119 
          6.29     0.862988 
         6.305     0.873874 
        6.3175       0.8882 
         6.325     0.901255 
        6.3325     0.920798 
        6.3375       0.9373 
        6.3425     0.957438 
         6.345     0.968514 
          6.35      0.99494 
         6.355      1.02704 
          6.36      1.06533 
         6.364      1.10093 
         6.368      1.14294 
         6.374      1.21444 
         6.383      1.32826 
        6.3855       1.3538 
         6.387      1.36772 
          6.39      1.38804 
         6.392      1.39692 
         6.394      1.39992 
         6.396      1.39547 
         6.398       1.3824 
           6.4      1.36098 
         6.402      1.33154 
         6.404      1.29472 
         6.406      1.25164 
          6.41      1.15389 
         6.415      1.02718 
         6.418     0.956431 
          6.42     0.913103 
         6.422     0.872853 
         6.425     0.818328 
          6.43     0.744698 
         6.435     0.690591 
          6.44     0.651538 
         6.445     0.622095 
          6.45     0.600695 
         6.455     0.585642 
          6.46       0.5747 
         6.465     0.566815 
         6.475     0.554541 
          6.48      0.54691 
         6.485     0.541592 
         6.495     0.534077 
          6.51     0.518812 
          6.52     0.510118 
          6.53     0.503293 
          6.54     0.502788 
          6.55       0.5117 
          6.56     0.533714 
          6.57     0.570188 
          6.58     0.611697 
          6.59     0.647868 
           6.6     0.690999 
          6.61     0.730328 
          6.62     0.760426 
          6.63     0.781983 
          6.65     0.811266 
         6.657      0.83542 
         6.665     0.871705 
         6.667     0.881328 
        6.6695     0.888488 
          6.67     0.888961 
        6.6715     0.887085 
         6.673     0.880525 
         6.674     0.875179 
         6.678      0.84752 
         6.681     0.832217 
         6.684     0.822966 
         6.688     0.816465 
        6.6975     0.811011 
          6.71     0.804534 
          6.72     0.807618 
         6.735     0.818976 
          6.75     0.834531 
          6.76     0.850404 
          6.77     0.874439 
          6.78     0.913662 
          6.79     0.981025 
           6.8      1.09869 
          6.81      1.27905 
          6.82      1.34163 
       6.82375      1.24879 
          6.83      1.09108 
          6.84     0.860264 
          6.85     0.762559 
          6.86     0.716895 
          6.87     0.689275 
          6.88     0.668075 
          6.89     0.657795 
           6.9       0.6554 
          6.91     0.655045 
          6.93     0.659701 
          6.95     0.658115 
          6.96     0.659923 
          6.97      0.66518 
          6.98     0.674324 
          6.99     0.685707 
             7     0.699198 
          7.01     0.716285 
          7.03     0.745808 
          7.04     0.764498 
          7.05     0.779182 
          7.06     0.787082 
          7.07     0.777817 
          7.08     0.762135 
           7.1     0.735193 
        7.1125     0.725013 
          7.12     0.722103 
         7.125     0.717921 
          7.14     0.672703 
         7.145     0.660935 
         7.155     0.643193 
          7.16     0.640761 
         7.165     0.648166 
          7.17     0.667765 
         7.175     0.702509 
          7.18     0.764973 
         7.185     0.854346 
          7.19     0.959747 
         7.195       1.0873 
           7.2      1.18376 
         7.205      1.17633 
          7.21      1.13095 
          7.22       1.0336 
          7.23     0.957547 
         7.235     0.922289 
          7.24     0.890743 
         7.245     0.865229 
          7.25     0.847775 
          7.26     0.844272 
          7.27     0.852586 
          7.28     0.852106 
          7.29      0.84778 
           7.3     0.854144 
          7.31      0.83413 
          7.32     0.909459 
          7.33     0.947401 
          7.34     0.918523 
          7.35     0.882907 
          7.36     0.839948 
        7.3675     0.759254 
          7.37     0.733648 
         7.375     0.794779 
          7.38     0.856468 
          7.41       0.8085 
          7.45     0.760215 
          7.47     0.740549 
          7.49     0.725487 
           7.5     0.721978 
         7.515     0.742786 
          7.52     0.748991 
          7.54     0.754744 
          7.55      0.75472 
          7.56     0.754896 
          7.57     0.748513 
          7.58     0.738626 
          7.59     0.732863 
           7.6     0.732223 
          7.61     0.740146 
          7.72     0.880675 
          7.73     0.890789 
          7.75     0.904886 
          7.77     0.914042 
           7.8     0.917982 
          7.82     0.925873 
          7.83     0.933186 
          7.85     0.954241 
          7.86     0.960882 
          7.87     0.955178 
          7.88     0.930018 
          7.89     0.892354 
           7.9     0.849539 
         7.915     0.791339 
          7.92     0.771173 
         7.935     0.704136 
          7.95     0.635209 
          7.96     0.595502 
          7.97     0.564924 
          7.98     0.541154 
          7.99     0.524698 
             8     0.516192 
          8.01     0.516362 
          8.02     0.522528 
          8.03     0.532371 
          8.04     0.544882 
          8.05     0.560917 
          8.06     0.579514 
           8.1     0.659675 
         8.135     0.735304 
          8.15      0.76382 
          8.16     0.776737 
          8.17     0.786797 
          8.19     0.801941 
         8.225     0.822755 
          8.24     0.827998 
          8.25     0.827162 
          8.26     0.822777 
          8.27     0.815578 
          8.29     0.796302 
          8.31     0.771704 
          8.32     0.756234 
          8.37     0.666415 
          8.38     0.650726 
          8.39     0.638561 
           8.4     0.628763 
          8.45     0.602082 
         8.505     0.563141 
          8.51     0.560172 
          8.53      0.55452 
          8.54     0.553162 
        8.5625     0.555151 
         8.575     0.559466 
         8.585      0.56494 
          8.59     0.568219 
           8.6     0.577626 
          8.61     0.590865 
          8.62     0.606251 
         8.635     0.632928 
          8.65     0.662381 
          8.67     0.708146 
          8.71     0.808842 
          8.72     0.830767 
          8.73     0.848823 
          8.74     0.862416 
          8.75     0.871633 
          8.76     0.875606 
          8.77     0.874404 
          8.78      0.86681 
          8.79     0.853841 
           8.8     0.837764 
          8.82     0.801848 
          8.85     0.754696 
          8.87     0.723039 
          8.89      0.68887 
           8.9     0.671256 
          8.91     0.656302 
          8.92       0.6492 
          8.95     0.654748 
          8.96     0.679502 
         8.975     0.681464 
          8.98     0.681663 
          8.99     0.689978 
             9     0.707051 
          9.02     0.737909 
         9.025     0.754685 
          9.04     0.819822 
          9.05     0.847988 
       9.07969     0.755249 
           9.1     0.737837 
         9.125     0.711951 
          9.14     0.690108 
          9.18     0.639108 
           9.2     0.616628 
         9.225     0.602218 
         9.248     0.600418 
         9.274     0.605258 
           9.3     0.619276 
         9.325     0.651341 
          9.35     0.685658 
         9.375     0.713536 
           9.4     0.719958 
       9.42362     0.696118 
        9.4315     0.691038 
         9.525     0.682237 
       9.58125     0.687438 
           9.6     0.691342 
         9.625     0.706003 
          9.65      0.71265 
           9.7     0.729146 
         9.725     0.734068 
        9.7625      0.73165 
         9.775      0.72959 
           9.8     0.742756 
         9.825     0.744078 
        9.8625     0.719815 
         9.875     0.711152 
           9.9     0.706631 
         9.925     0.707442 
          9.95     0.713885 
         9.975     0.730664 
            10     0.739919 
         10.05     0.753864 
          10.1     0.787386 
        10.122     0.800096 
         10.15     0.812396 
         10.19     0.823466 
        10.202     0.825506 
        10.247     0.817036 
          10.3     0.791665 
        10.372     0.740466 
          10.4     0.722356 
         10.45     0.708566 
        10.465     0.708046 
        10.528     0.710316 
         10.55     0.709166 
        10.563     0.705966 
          10.6     0.690626 
        10.667     0.686516 
         10.68     0.687816 
         10.69     0.692486 
          10.7     0.703366 
         10.71     0.705736 
         10.72     0.679785 
         10.73     0.623685 
         10.75     0.672896 
         10.76     0.693336 
         10.77     0.712027 
         10.78     0.728576 
         10.82     0.784956 
         10.83     0.797856 
         10.84     0.806346 
         10.85     0.810816 
         10.86     0.810746 
         10.87     0.808406 
         10.88     0.807696 
          10.9     0.813166 
         10.92     0.823046 
         10.93     0.836127 
         10.94     0.866424 
         10.95     0.907605 
         10.96     0.952256 
         10.97     0.980066 
         10.99     0.983516 
            11     0.987556 
        11.009     0.996366 
         11.05       1.0447 
          11.1       1.1072 
         11.15       1.1462 
          11.2       1.1014 
         11.25       1.0338 
          11.3     0.977336 
         11.35     0.930146 
          11.4     0.899446 
         11.45     0.909696 
          11.5     0.940176 
         11.52     0.954836 
          11.6       1.0005 
        11.643        1.006 
          11.7       1.0017 
         11.75       1.0061 
        11.779       1.0596 
        11.797       1.0729 
          11.8       1.0737 
         11.85       1.0654 
          11.9       1.0423 
         11.95       1.0431 
         11.97       1.0502 
            12       1.0368 
         12.05     0.990596 
         12.11     0.927023 
        12.161      0.87904 
          12.2     0.867773 
         12.25     0.885265 
          12.3     0.889143 
        12.333      0.88844 
         12.45     0.876239 
          12.5     0.876951 
         12.55     0.875926 
          12.6     0.864775 
         12.65      0.84853 
          12.7     0.840107 
         12.75     0.852895 
         12.85     0.944229 
       12.8924     0.972853 
          12.9     0.974144 
         12.95     0.958407 
            13      0.91987 
         13.05     0.894916 
          13.1      0.89351 
          13.2     0.909543 
       13.2247     0.909037 
         13.25     0.909219 
          13.3     0.904319 
          13.4      0.91332 
         13.45     0.920169 
          13.5     0.923498 
         13.55     0.921324 
         13.62     0.939047 
         13.65     0.952388 
         13.73      1.00386 
         13.74      1.00828 
         13.75      1.00726 
         13.76      1.00111 
         13.77     0.997874 
        13.785      1.00335 
          13.8      1.01278 
         13.81      1.01659 
         13.83      1.01288 
         13.95      0.97923 
            14     0.956582 
         14.05     0.935933 
          14.1     0.944654 
         14.15     0.955268 
       14.3496     0.973004 
         14.35     0.973037 
          14.4     0.967094 
          14.5     0.961355 
         14.55      0.96246 
         14.65     0.978438 
         14.75      1.00154 
         14.85      1.03103 
         15.02      1.04462 
         15.05      1.03681 
          15.1      1.01351 
         15.15     0.984825 
          15.2     0.949054 
        15.255      0.92037 
       15.3921     0.876434 
          15.4      0.87594 
          15.5     0.881992 
         15.55     0.885731 
          15.6     0.898089 
          15.7     0.916749 
         15.75     0.922604 
          15.8     0.921001 
         15.85     0.915693 
          15.9     0.905107 
         15.95     0.884647 
            16     0.856786 
          16.1     0.843817 
        16.161     0.859532 
        16.212     0.875534 
          16.3     0.907101 
          16.4     0.928135 
          16.5     0.941332 
        16.531      0.93363 
        16.615     0.923392 
       16.6516     0.923109 
          16.7     0.927729 
         16.82     0.950054 
          16.9     0.973301 
            17      1.00527 
          17.1      1.04497 
        17.169      1.05883 
          17.2      1.06333 
       17.2502      1.06564 
        17.435      1.05995 
        17.488      1.06008 
          17.5      1.06007 
       17.7469      1.06678 
        17.807      1.06842 
        17.845      1.06844 
            18      1.05854 
          18.1      1.03393 
          18.2      1.01822 
          18.3      1.01572 
          18.5      1.03404 
          18.6      1.02625 
          18.7       1.0378 
          18.8      1.06145 
          18.9      1.09783 
            19      1.11185 
          19.1      1.10344 
          19.2      1.10752 
          19.3       1.0991 
        19.401      1.07383 
          19.5       1.0333 
          19.6      1.00419 
          19.7     0.991462 
          19.9     0.995323 
          20.1      1.00212 
       20.1482      1.00741 
       20.3342      1.03447 
         20.42      1.04319 
         20.65      1.05541 
         20.82      1.05547 
         20.95      1.05504 
       21.2456      1.06322 
         21.25      1.06334 
       21.5498      1.05868 
       21.5942      1.05799 
        21.895      1.04774 
        22.044      1.04516 
         22.15      1.04125 
         22.45      1.01635 
          22.5       1.0136 
       22.8174      1.00423 
         23.05     0.997356 
         23.35     0.995678 
         23.65     0.999893 
         23.95     0.989453 
            24     0.989356 
         24.25     0.994628 
       24.5771      1.00558 
       24.9238      1.01458 
            25      1.01656 
         25.15       1.0187 
         25.45      1.01541 
         25.75      1.01934 
            26      1.02669 
         26.35      1.02997 
       26.7218      1.02831 
            27      1.02707 
       27.3809      1.02538 
          27.5      1.02485 
         27.85      1.02128 
       28.2429      1.02396 
          28.5      1.02572 
       28.9021      1.03152 
            29      1.03294 
         29.35      1.03169 
          29.5      1.03835 
         29.65      1.04253 
         29.95      1.04282 
       30.3725      1.04002 
       30.7079      1.03779 
       31.1412      1.03653 
       31.5805      1.03526 
            32      1.03404 
       32.4515      1.03086 
       32.9093      1.02764 
       33.3736      1.02437 
       33.8444      1.02106 
       34.3219       1.0177 
       34.3888      1.01723 
       34.8739      1.01289 
       35.3659      1.00848 
       35.8649      1.00401 
       36.3709     0.999485 
        36.884     0.994892 
       37.4044     0.990234 
       37.9321     0.985511 
       38.4672      0.98072 
       39.0099     0.975862 
       39.5603     0.970936 
            40        0.967 
       40.5643     0.960716 
            41     0.955865 
       41.5784     0.947873 
        42.165     0.939768 
       42.7599     0.931549 
            43     0.928231 
       43.6067     0.918418 
       44.2219     0.908466 
       44.8458     0.898374 
       45.4784      0.88814 
       46.1201     0.877761 
       46.7707     0.867236 
       47.4306     0.856562 
       48.0997     0.845738 
       48.7783     0.834761 
       49.4665     0.823629 
            50        0.815 
       50.7054     0.804664 
       51.4208     0.794183 
       52.1462     0.783553 
       52.8819     0.772774 
            53     0.771044 
       53.7477     0.761048 
        54.506     0.750912 
        55.275     0.740632 
       56.0548     0.730208 
       56.8457     0.719636 
            57     0.717573 
       57.8042     0.707594 
       58.6197     0.697475 
       59.4467     0.687212 
       60.2854     0.676805 
            61     0.667938 
       61.8606     0.658281 
       62.7333     0.648488 
       63.6184     0.638556 
       64.5159     0.628485 
            65     0.623053 
        65.917      0.61377 
        66.847     0.604355 
       67.7901     0.594807 
       68.7465     0.585125 
            69     0.582559 
       69.9735     0.573548 
       70.9607     0.564411 
       71.9618     0.555145 
       72.9771     0.545748 
            73     0.545535 
       74.0299     0.536876 
       75.0743     0.528095 
       76.1335     0.519189 
            77     0.511904 
       78.0863      0.50361 
        79.188     0.495199 
            80        0.489 
       81.1287     0.481538 
            82     0.475777 
       83.1569     0.468808 
       84.3301      0.46174 
       85.5198     0.454573 
            86     0.451681 
       87.2133     0.443199 
            88       0.4377 
       89.2415     0.427333 
            90        0.421 
       91.2697     0.409862 
       92.5574     0.398566 
       93.8632     0.387111 
            94     0.385911 
       95.3262     0.375284 
       96.6711     0.364508 
            97     0.361872 
       98.3685     0.351895 
       99.7563     0.341777 
           100         0.34 
       101.411     0.330427 
           102     0.326429 
       103.439     0.317142 
           104     0.313522 
       105.467     0.304645 
           106     0.301421 
       107.495      0.29305 
           108     0.290226 
       109.524     0.282435 
           110         0.28 
       111.552     0.272707 
           112     0.270601 
        113.58     0.263832 
       115.183     0.256968 
           116     0.253466 
       117.637     0.247138 
       119.296     0.240721 
           120        0.238 
       121.693     0.232024 
        123.41     0.225965 
           124     0.223882 
       125.749     0.218254 
       127.524     0.212548 
           128     0.211015 
       129.806     0.205703 
       131.637     0.200316 
       133.494     0.194853 
       135.378     0.189312 
       137.288     0.183694 
           138     0.181598 
       139.947     0.176147 
       141.921     0.170619 
       143.924     0.165013 
       145.954     0.159328 
       148.013     0.153563 
           150        0.148 
//
#-------------------------------------------------------------------------------
